title:0                                                                               , recorded:27.11.20 11.45.05, sampling:128, subject:0                                                                               , labels:COUNTER INTERPOLATED AF3 T7 Pz T8 AF4 RAW_CQ GYROX GYROY MARKER MARKER_HARDWARE SYNC TIME_STAMP_s TIME_STAMP_ms CQ_AF3 CQ_T7 CQ_Pz CQ_T8 CQ_AF4, chan:20, units:emotiv
1.00000000000000000000, 0.00000000000000000000, 4398.97412109375000000000, 4645.64111328125000000000, 4399.48730468750000000000, 4553.84619140625000000000, 4288.20507812500000000000, 500.00000000000000000000, 0.00000000000000000000, 0.00000000000000000000, 0.00000000000000000000, 0.00000000000000000000, 0.00000000000000000000, 1391.00000000000000000000, 571.00000000000000000000, 0.00000000000000000000, 0.00000000000000000000, 0.00000000000000000000, 0.00000000000000000000, 0.00000000000000000000
2.00000000000000000000, 0.00000000000000000000, 4360.51269531250000000000, 4515.89746093750000000000, 4293.33300781250000000000, 4384.61523437500000000000, 4320.51269531250000000000, 16249.00000000000000000000, 6167.00000000000000000000, 9567.00000000000000000000, 0.00000000000000000000, 0.00000000000000000000, 0.00000000000000000000, 1391.00000000000000000000, 580.00000000000000000000, 3.00000000000000000000, 0.00000000000000000000, 0.00000000000000000000, 0.00000000000000000000, 0.00000000000000000000
3.00000000000000000000, 0.00000000000000000000, 4362.05126953125000000000, 4406.15380859375000000000, 4240.00000000000000000000, 4253.33300781250000000000, 4392.30761718750000000000, 500.00000000000000000000, 0.00000000000000000000, 0.00000000000000000000, 0.00000000000000000000, 0.00000000000000000000, 0.00000000000000000000, 1391.00000000000000000000, 588.00000000000000000000, 3.00000000000000000000, 0.00000000000000000000, 0.00000000000000000000, 0.00000000000000000000, 0.00000000000000000000
4.00000000000000000000, 0.00000000000000000000, 4335.38427734375000000000, 4443.58984375000000000000, 4231.79492187500000000000, 4261.02539062500000000000, 4399.48730468750000000000, 0.00000000000000000000, 6165.00000000000000000000, 9564.00000000000000000000, 0.00000000000000000000, 0.00000000000000000000, 0.00000000000000000000, 1391.00000000000000000000, 597.00000000000000000000, 3.00000000000000000000, 0.00000000000000000000, 0.00000000000000000000, 0.00000000000000000000, 0.00000000000000000000
5.00000000000000000000, 0.00000000000000000000, 4372.30761718750000000000, 4644.61523437500000000000, 4310.25634765625000000000, 4318.46142578125000000000, 4398.97412109375000000000, 500.00000000000000000000, 0.00000000000000000000, 0.00000000000000000000, 0.00000000000000000000, 0.00000000000000000000, 0.00000000000000000000, 1391.00000000000000000000, 605.00000000000000000000, 3.00000000000000000000, 0.00000000000000000000, 0.00000000000000000000, 0.00000000000000000000, 0.00000000000000000000
6.00000000000000000000, 0.00000000000000000000, 4349.23046875000000000000, 4575.89746093750000000000, 4274.35888671875000000000, 4270.25634765625000000000, 4378.46142578125000000000, 16150.00000000000000000000, 6163.00000000000000000000, 9561.00000000000000000000, 0.00000000000000000000, 0.00000000000000000000, 0.00000000000000000000, 1391.00000000000000000000, 613.00000000000000000000, 3.00000000000000000000, 0.00000000000000000000, 3.00000000000000000000, 0.00000000000000000000, 0.00000000000000000000
7.00000000000000000000, 0.00000000000000000000, 4268.20507812500000000000, 4260.00000000000000000000, 4188.20507812500000000000, 4253.84619140625000000000, 4359.48730468750000000000, 500.00000000000000000000, 0.00000000000000000000, 0.00000000000000000000, 0.00000000000000000000, 0.00000000000000000000, 0.00000000000000000000, 1391.00000000000000000000, 622.00000000000000000000, 3.00000000000000000000, 0.00000000000000000000, 3.00000000000000000000, 0.00000000000000000000, 0.00000000000000000000
8.00000000000000000000, 0.00000000000000000000, 4255.38427734375000000000, 4338.46142578125000000000, 4186.66650390625000000000, 4284.10253906250000000000, 4313.33300781250000000000, 500.00000000000000000000, 6167.00000000000000000000, 9567.00000000000000000000, 0.00000000000000000000, 0.00000000000000000000, 0.00000000000000000000, 1391.00000000000000000000, 630.00000000000000000000, 3.00000000000000000000, 0.00000000000000000000, 3.00000000000000000000, 0.00000000000000000000, 0.00000000000000000000
9.00000000000000000000, 0.00000000000000000000, 4294.35888671875000000000, 4643.07666015625000000000, 4238.97412109375000000000, 4234.35888671875000000000, 4315.89746093750000000000, 42.00000000000000000000, 0.00000000000000000000, 0.00000000000000000000, 0.00000000000000000000, 0.00000000000000000000, 0.00000000000000000000, 1391.00000000000000000000, 639.00000000000000000000, 3.00000000000000000000, 0.00000000000000000000, 3.00000000000000000000, 1.00000000000000000000, 0.00000000000000000000
10.00000000000000000000, 0.00000000000000000000, 4276.92285156250000000000, 4818.97412109375000000000, 4269.23046875000000000000, 4238.97412109375000000000, 4302.05126953125000000000, 500.00000000000000000000, 6163.00000000000000000000, 9561.00000000000000000000, 0.00000000000000000000, 0.00000000000000000000, 0.00000000000000000000, 1391.00000000000000000000, 647.00000000000000000000, 3.00000000000000000000, 0.00000000000000000000, 3.00000000000000000000, 1.00000000000000000000, 0.00000000000000000000
11.00000000000000000000, 0.00000000000000000000, 4268.20507812500000000000, 4992.82031250000000000000, 4326.15380859375000000000, 4268.71777343750000000000, 4251.28173828125000000000, 16247.00000000000000000000, 0.00000000000000000000, 0.00000000000000000000, 0.00000000000000000000, 0.00000000000000000000, 0.00000000000000000000, 1391.00000000000000000000, 656.00000000000000000000, 3.00000000000000000000, 0.00000000000000000000, 3.00000000000000000000, 1.00000000000000000000, 3.00000000000000000000
12.00000000000000000000, 0.00000000000000000000, 4313.33300781250000000000, 5038.97412109375000000000, 4380.51269531250000000000, 4255.38427734375000000000, 4251.79492187500000000000, 500.00000000000000000000, 6162.00000000000000000000, 9558.00000000000000000000, 0.00000000000000000000, 0.00000000000000000000, 0.00000000000000000000, 1391.00000000000000000000, 664.00000000000000000000, 3.00000000000000000000, 0.00000000000000000000, 3.00000000000000000000, 1.00000000000000000000, 3.00000000000000000000
13.00000000000000000000, 0.00000000000000000000, 4331.79492187500000000000, 4973.84619140625000000000, 4389.23046875000000000000, 4306.66650390625000000000, 4254.87158203125000000000, 500.00000000000000000000, 0.00000000000000000000, 0.00000000000000000000, 0.00000000000000000000, 0.00000000000000000000, 0.00000000000000000000, 1391.00000000000000000000, 672.00000000000000000000, 3.00000000000000000000, 0.00000000000000000000, 3.00000000000000000000, 1.00000000000000000000, 3.00000000000000000000
14.00000000000000000000, 0.00000000000000000000, 4341.02539062500000000000, 4898.97412109375000000000, 4392.30761718750000000000, 4443.07666015625000000000, 4250.76904296875000000000, 450.00000000000000000000, 6160.00000000000000000000, 9555.00000000000000000000, 0.00000000000000000000, 0.00000000000000000000, 0.00000000000000000000, 1391.00000000000000000000, 681.00000000000000000000, 3.00000000000000000000, 0.00000000000000000000, 3.00000000000000000000, 1.00000000000000000000, 3.00000000000000000000
15.00000000000000000000, 0.00000000000000000000, 4318.97412109375000000000, 4752.82031250000000000000, 4354.87158203125000000000, 4468.71777343750000000000, 4264.10253906250000000000, 16247.00000000000000000000, 0.00000000000000000000, 0.00000000000000000000, 0.00000000000000000000, 0.00000000000000000000, 0.00000000000000000000, 1391.00000000000000000000, 689.00000000000000000000, 3.00000000000000000000, 0.00000000000000000000, 3.00000000000000000000, 1.00000000000000000000, 3.00000000000000000000
16.00000000000000000000, 0.00000000000000000000, 4312.30761718750000000000, 4732.30761718750000000000, 4356.92285156250000000000, 4400.00000000000000000000, 4292.82031250000000000000, 0.00000000000000000000, 6159.00000000000000000000, 9553.00000000000000000000, 0.00000000000000000000, 0.00000000000000000000, 0.00000000000000000000, 1391.00000000000000000000, 698.00000000000000000000, 3.00000000000000000000, 0.00000000000000000000, 3.00000000000000000000, 1.00000000000000000000, 3.00000000000000000000
17.00000000000000000000, 0.00000000000000000000, 4278.46142578125000000000, 4824.61523437500000000000, 4388.20507812500000000000, 4466.66650390625000000000, 4220.51269531250000000000, 0.00000000000000000000, 0.00000000000000000000, 0.00000000000000000000, 0.00000000000000000000, 0.00000000000000000000, 0.00000000000000000000, 1391.00000000000000000000, 706.00000000000000000000, 3.00000000000000000000, 0.00000000000000000000, 3.00000000000000000000, 1.00000000000000000000, 3.00000000000000000000
18.00000000000000000000, 0.00000000000000000000, 4287.69238281250000000000, 4784.10253906250000000000, 4364.10253906250000000000, 4401.02539062500000000000, 4234.87158203125000000000, 0.00000000000000000000, 6157.00000000000000000000, 9550.00000000000000000000, 0.00000000000000000000, 0.00000000000000000000, 0.00000000000000000000, 1391.00000000000000000000, 714.00000000000000000000, 3.00000000000000000000, 0.00000000000000000000, 3.00000000000000000000, 1.00000000000000000000, 3.00000000000000000000
19.00000000000000000000, 0.00000000000000000000, 4243.58984375000000000000, 4585.64111328125000000000, 4279.48730468750000000000, 4348.20507812500000000000, 4258.46142578125000000000, 0.00000000000000000000, 0.00000000000000000000, 0.00000000000000000000, 0.00000000000000000000, 0.00000000000000000000, 0.00000000000000000000, 1391.00000000000000000000, 723.00000000000000000000, 3.00000000000000000000, 0.00000000000000000000, 3.00000000000000000000, 1.00000000000000000000, 3.00000000000000000000
20.00000000000000000000, 0.00000000000000000000, 4273.33300781250000000000, 4605.12792968750000000000, 4337.43603515625000000000, 4473.33300781250000000000, 4249.23046875000000000000, 0.00000000000000000000, 6156.00000000000000000000, 9548.00000000000000000000, 0.00000000000000000000, 0.00000000000000000000, 0.00000000000000000000, 1391.00000000000000000000, 731.00000000000000000000, 3.00000000000000000000, 0.00000000000000000000, 3.00000000000000000000, 1.00000000000000000000, 3.00000000000000000000
21.00000000000000000000, 0.00000000000000000000, 4284.10253906250000000000, 4650.76904296875000000000, 4323.07666015625000000000, 4380.51269531250000000000, 4243.07666015625000000000, 0.00000000000000000000, 0.00000000000000000000, 0.00000000000000000000, 0.00000000000000000000, 0.00000000000000000000, 0.00000000000000000000, 1391.00000000000000000000, 740.00000000000000000000, 3.00000000000000000000, 0.00000000000000000000, 3.00000000000000000000, 1.00000000000000000000, 3.00000000000000000000
22.00000000000000000000, 0.00000000000000000000, 4222.05126953125000000000, 4469.74365234375000000000, 4220.00000000000000000000, 4200.51269531250000000000, 4286.15380859375000000000, 0.00000000000000000000, 6156.00000000000000000000, 9547.00000000000000000000, 0.00000000000000000000, 0.00000000000000000000, 0.00000000000000000000, 1391.00000000000000000000, 748.00000000000000000000, 3.00000000000000000000, 0.00000000000000000000, 3.00000000000000000000, 1.00000000000000000000, 3.00000000000000000000
23.00000000000000000000, 0.00000000000000000000, 4186.66650390625000000000, 4464.61523437500000000000, 4184.61523437500000000000, 4258.97412109375000000000, 4268.20507812500000000000, 0.00000000000000000000, 0.00000000000000000000, 0.00000000000000000000, 0.00000000000000000000, 0.00000000000000000000, 0.00000000000000000000, 1391.00000000000000000000, 756.00000000000000000000, 3.00000000000000000000, 0.00000000000000000000, 3.00000000000000000000, 1.00000000000000000000, 3.00000000000000000000
24.00000000000000000000, 0.00000000000000000000, 4273.84619140625000000000, 4787.69238281250000000000, 4266.15380859375000000000, 4230.76904296875000000000, 4263.58984375000000000000, 0.00000000000000000000, 6155.00000000000000000000, 9546.00000000000000000000, 0.00000000000000000000, 0.00000000000000000000, 0.00000000000000000000, 1391.00000000000000000000, 765.00000000000000000000, 3.00000000000000000000, 0.00000000000000000000, 3.00000000000000000000, 1.00000000000000000000, 3.00000000000000000000
25.00000000000000000000, 0.00000000000000000000, 4292.82031250000000000000, 4985.64111328125000000000, 4325.12792968750000000000, 4120.51269531250000000000, 4271.28173828125000000000, 0.00000000000000000000, 0.00000000000000000000, 0.00000000000000000000, 0.00000000000000000000, 0.00000000000000000000, 0.00000000000000000000, 1391.00000000000000000000, 773.00000000000000000000, 3.00000000000000000000, 0.00000000000000000000, 3.00000000000000000000, 1.00000000000000000000, 3.00000000000000000000
26.00000000000000000000, 0.00000000000000000000, 4225.12792968750000000000, 4868.71777343750000000000, 4366.66650390625000000000, 4374.35888671875000000000, 4205.64111328125000000000, 0.00000000000000000000, 6155.00000000000000000000, 9546.00000000000000000000, 0.00000000000000000000, 0.00000000000000000000, 0.00000000000000000000, 1391.00000000000000000000, 782.00000000000000000000, 3.00000000000000000000, 0.00000000000000000000, 3.00000000000000000000, 1.00000000000000000000, 3.00000000000000000000
27.00000000000000000000, 0.00000000000000000000, 4252.82031250000000000000, 4846.15380859375000000000, 4383.58984375000000000000, 4564.10253906250000000000, 4163.58984375000000000000, 0.00000000000000000000, 0.00000000000000000000, 0.00000000000000000000, 0.00000000000000000000, 0.00000000000000000000, 0.00000000000000000000, 1391.00000000000000000000, 790.00000000000000000000, 3.00000000000000000000, 0.00000000000000000000, 3.00000000000000000000, 1.00000000000000000000, 3.00000000000000000000
28.00000000000000000000, 0.00000000000000000000, 4257.94873046875000000000, 4778.46142578125000000000, 4321.53857421875000000000, 4412.82031250000000000000, 4183.07666015625000000000, 0.00000000000000000000, 6154.00000000000000000000, 9545.00000000000000000000, 0.00000000000000000000, 0.00000000000000000000, 0.00000000000000000000, 1391.00000000000000000000, 798.00000000000000000000, 3.00000000000000000000, 0.00000000000000000000, 3.00000000000000000000, 1.00000000000000000000, 3.00000000000000000000
29.00000000000000000000, 0.00000000000000000000, 4195.89746093750000000000, 4554.35888671875000000000, 4292.82031250000000000000, 4427.17919921875000000000, 4188.20507812500000000000, 0.00000000000000000000, 0.00000000000000000000, 0.00000000000000000000, 0.00000000000000000000, 0.00000000000000000000, 0.00000000000000000000, 1391.00000000000000000000, 807.00000000000000000000, 3.00000000000000000000, 0.00000000000000000000, 3.00000000000000000000, 1.00000000000000000000, 3.00000000000000000000
30.00000000000000000000, 0.00000000000000000000, 4196.92285156250000000000, 4557.94873046875000000000, 4277.43603515625000000000, 4438.46142578125000000000, 4188.20507812500000000000, 0.00000000000000000000, 6154.00000000000000000000, 9545.00000000000000000000, 0.00000000000000000000, 0.00000000000000000000, 0.00000000000000000000, 1391.00000000000000000000, 815.00000000000000000000, 3.00000000000000000000, 0.00000000000000000000, 3.00000000000000000000, 1.00000000000000000000, 3.00000000000000000000
31.00000000000000000000, 0.00000000000000000000, 4253.84619140625000000000, 4644.10253906250000000000, 4231.79492187500000000000, 4202.56396484375000000000, 4281.53857421875000000000, 0.00000000000000000000, 0.00000000000000000000, 0.00000000000000000000, 0.00000000000000000000, 0.00000000000000000000, 0.00000000000000000000, 1391.00000000000000000000, 824.00000000000000000000, 3.00000000000000000000, 0.00000000000000000000, 3.00000000000000000000, 1.00000000000000000000, 3.00000000000000000000
32.00000000000000000000, 0.00000000000000000000, 4237.43603515625000000000, 4771.79492187500000000000, 4282.56396484375000000000, 4266.66650390625000000000, 4246.15380859375000000000, 0.00000000000000000000, 6154.00000000000000000000, 9545.00000000000000000000, 0.00000000000000000000, 0.00000000000000000000, 0.00000000000000000000, 1391.00000000000000000000, 832.00000000000000000000, 3.00000000000000000000, 0.00000000000000000000, 3.00000000000000000000, 1.00000000000000000000, 3.00000000000000000000
33.00000000000000000000, 0.00000000000000000000, 4260.51269531250000000000, 4943.07666015625000000000, 4417.43554687500000000000, 4503.58984375000000000000, 4156.92285156250000000000, 0.00000000000000000000, 0.00000000000000000000, 0.00000000000000000000, 0.00000000000000000000, 0.00000000000000000000, 0.00000000000000000000, 1391.00000000000000000000, 840.00000000000000000000, 3.00000000000000000000, 0.00000000000000000000, 3.00000000000000000000, 1.00000000000000000000, 3.00000000000000000000
34.00000000000000000000, 0.00000000000000000000, 4236.92285156250000000000, 4840.00000000000000000000, 4369.23046875000000000000, 4447.69238281250000000000, 4142.56396484375000000000, 0.00000000000000000000, 6154.00000000000000000000, 9546.00000000000000000000, 0.00000000000000000000, 0.00000000000000000000, 0.00000000000000000000, 1391.00000000000000000000, 849.00000000000000000000, 3.00000000000000000000, 0.00000000000000000000, 3.00000000000000000000, 1.00000000000000000000, 3.00000000000000000000
35.00000000000000000000, 0.00000000000000000000, 4218.46142578125000000000, 4593.33300781250000000000, 4293.84619140625000000000, 4356.92285156250000000000, 4195.89746093750000000000, 0.00000000000000000000, 0.00000000000000000000, 0.00000000000000000000, 0.00000000000000000000, 0.00000000000000000000, 0.00000000000000000000, 1391.00000000000000000000, 857.00000000000000000000, 3.00000000000000000000, 0.00000000000000000000, 3.00000000000000000000, 1.00000000000000000000, 3.00000000000000000000
36.00000000000000000000, 0.00000000000000000000, 4185.12792968750000000000, 4530.76904296875000000000, 4270.25634765625000000000, 4404.10253906250000000000, 4157.94873046875000000000, 0.00000000000000000000, 6154.00000000000000000000, 9547.00000000000000000000, 0.00000000000000000000, 0.00000000000000000000, 0.00000000000000000000, 1391.00000000000000000000, 866.00000000000000000000, 3.00000000000000000000, 0.00000000000000000000, 3.00000000000000000000, 1.00000000000000000000, 3.00000000000000000000
37.00000000000000000000, 0.00000000000000000000, 4187.69238281250000000000, 4514.35888671875000000000, 4280.00000000000000000000, 4426.66650390625000000000, 4144.61523437500000000000, 0.00000000000000000000, 0.00000000000000000000, 0.00000000000000000000, 0.00000000000000000000, 0.00000000000000000000, 0.00000000000000000000, 1391.00000000000000000000, 874.00000000000000000000, 3.00000000000000000000, 0.00000000000000000000, 3.00000000000000000000, 1.00000000000000000000, 3.00000000000000000000
38.00000000000000000000, 0.00000000000000000000, 4178.46142578125000000000, 4446.66650390625000000000, 4230.76904296875000000000, 4335.89746093750000000000, 4164.61523437500000000000, 0.00000000000000000000, 6154.00000000000000000000, 9548.00000000000000000000, 0.00000000000000000000, 0.00000000000000000000, 0.00000000000000000000, 1391.00000000000000000000, 882.00000000000000000000, 3.00000000000000000000, 0.00000000000000000000, 3.00000000000000000000, 1.00000000000000000000, 3.00000000000000000000
39.00000000000000000000, 0.00000000000000000000, 4167.69238281250000000000, 4398.97412109375000000000, 4189.74365234375000000000, 4217.94873046875000000000, 4182.56396484375000000000, 0.00000000000000000000, 0.00000000000000000000, 0.00000000000000000000, 0.00000000000000000000, 0.00000000000000000000, 0.00000000000000000000, 1391.00000000000000000000, 891.00000000000000000000, 3.00000000000000000000, 0.00000000000000000000, 3.00000000000000000000, 1.00000000000000000000, 3.00000000000000000000
40.00000000000000000000, 0.00000000000000000000, 4151.79492187500000000000, 4334.35888671875000000000, 4165.12792968750000000000, 4242.56396484375000000000, 4165.64111328125000000000, 0.00000000000000000000, 6154.00000000000000000000, 9549.00000000000000000000, 0.00000000000000000000, 0.00000000000000000000, 0.00000000000000000000, 1391.00000000000000000000, 899.00000000000000000000, 3.00000000000000000000, 0.00000000000000000000, 3.00000000000000000000, 1.00000000000000000000, 3.00000000000000000000
41.00000000000000000000, 0.00000000000000000000, 4210.76904296875000000000, 4543.58984375000000000000, 4227.69238281250000000000, 4277.43603515625000000000, 4175.38427734375000000000, 0.00000000000000000000, 0.00000000000000000000, 0.00000000000000000000, 0.00000000000000000000, 0.00000000000000000000, 0.00000000000000000000, 1391.00000000000000000000, 908.00000000000000000000, 3.00000000000000000000, 0.00000000000000000000, 3.00000000000000000000, 1.00000000000000000000, 3.00000000000000000000
42.00000000000000000000, 0.00000000000000000000, 4295.89746093750000000000, 4928.20507812500000000000, 4322.05126953125000000000, 4161.02539062500000000000, 4240.00000000000000000000, 0.00000000000000000000, 6155.00000000000000000000, 9550.00000000000000000000, 0.00000000000000000000, 0.00000000000000000000, 0.00000000000000000000, 1391.00000000000000000000, 916.00000000000000000000, 3.00000000000000000000, 0.00000000000000000000, 3.00000000000000000000, 1.00000000000000000000, 3.00000000000000000000
43.00000000000000000000, 0.00000000000000000000, 4220.00000000000000000000, 4783.07666015625000000000, 4320.51269531250000000000, 4281.02539062500000000000, 4195.89746093750000000000, 0.00000000000000000000, 0.00000000000000000000, 0.00000000000000000000, 0.00000000000000000000, 0.00000000000000000000, 0.00000000000000000000, 1391.00000000000000000000, 924.00000000000000000000, 3.00000000000000000000, 0.00000000000000000000, 3.00000000000000000000, 1.00000000000000000000, 3.00000000000000000000
44.00000000000000000000, 0.00000000000000000000, 4144.61523437500000000000, 4462.56396484375000000000, 4292.82031250000000000000, 4555.38427734375000000000, 4112.82031250000000000000, 0.00000000000000000000, 6155.00000000000000000000, 9551.00000000000000000000, 0.00000000000000000000, 0.00000000000000000000, 0.00000000000000000000, 1391.00000000000000000000, 933.00000000000000000000, 3.00000000000000000000, 0.00000000000000000000, 3.00000000000000000000, 1.00000000000000000000, 3.00000000000000000000
45.00000000000000000000, 0.00000000000000000000, 4181.53857421875000000000, 4599.48730468750000000000, 4293.84619140625000000000, 4455.89746093750000000000, 4144.61523437500000000000, 0.00000000000000000000, 0.00000000000000000000, 0.00000000000000000000, 0.00000000000000000000, 0.00000000000000000000, 0.00000000000000000000, 1391.00000000000000000000, 941.00000000000000000000, 3.00000000000000000000, 0.00000000000000000000, 3.00000000000000000000, 1.00000000000000000000, 3.00000000000000000000
46.00000000000000000000, 0.00000000000000000000, 4235.89746093750000000000, 4816.92285156250000000000, 4307.17919921875000000000, 4215.38427734375000000000, 4238.97412109375000000000, 0.00000000000000000000, 6155.00000000000000000000, 9552.00000000000000000000, 0.00000000000000000000, 0.00000000000000000000, 0.00000000000000000000, 1391.00000000000000000000, 950.00000000000000000000, 3.00000000000000000000, 0.00000000000000000000, 3.00000000000000000000, 1.00000000000000000000, 3.00000000000000000000
47.00000000000000000000, 0.00000000000000000000, 4218.97412109375000000000, 4797.94873046875000000000, 4281.53857421875000000000, 4168.20507812500000000000, 4240.00000000000000000000, 0.00000000000000000000, 0.00000000000000000000, 0.00000000000000000000, 0.00000000000000000000, 0.00000000000000000000, 0.00000000000000000000, 1391.00000000000000000000, 958.00000000000000000000, 3.00000000000000000000, 0.00000000000000000000, 3.00000000000000000000, 1.00000000000000000000, 3.00000000000000000000
48.00000000000000000000, 0.00000000000000000000, 4225.12792968750000000000, 4745.12792968750000000000, 4296.41015625000000000000, 4209.23046875000000000000, 4255.38427734375000000000, 0.00000000000000000000, 6156.00000000000000000000, 9553.00000000000000000000, 0.00000000000000000000, 0.00000000000000000000, 0.00000000000000000000, 1391.00000000000000000000, 967.00000000000000000000, 3.00000000000000000000, 0.00000000000000000000, 3.00000000000000000000, 1.00000000000000000000, 3.00000000000000000000
49.00000000000000000000, 0.00000000000000000000, 4217.43603515625000000000, 4891.28173828125000000000, 4351.28173828125000000000, 4297.94873046875000000000, 4216.41015625000000000000, 0.00000000000000000000, 0.00000000000000000000, 0.00000000000000000000, 0.00000000000000000000, 0.00000000000000000000, 0.00000000000000000000, 1391.00000000000000000000, 975.00000000000000000000, 3.00000000000000000000, 0.00000000000000000000, 3.00000000000000000000, 1.00000000000000000000, 3.00000000000000000000
50.00000000000000000000, 0.00000000000000000000, 4248.20507812500000000000, 5006.15380859375000000000, 4384.61523437500000000000, 4226.66650390625000000000, 4215.38427734375000000000, 0.00000000000000000000, 6156.00000000000000000000, 9555.00000000000000000000, 0.00000000000000000000, 0.00000000000000000000, 0.00000000000000000000, 1391.00000000000000000000, 983.00000000000000000000, 3.00000000000000000000, 0.00000000000000000000, 3.00000000000000000000, 1.00000000000000000000, 3.00000000000000000000
51.00000000000000000000, 0.00000000000000000000, 4223.58984375000000000000, 4942.56396484375000000000, 4378.46142578125000000000, 4224.61523437500000000000, 4204.61523437500000000000, 0.00000000000000000000, 0.00000000000000000000, 0.00000000000000000000, 0.00000000000000000000, 0.00000000000000000000, 0.00000000000000000000, 1391.00000000000000000000, 992.00000000000000000000, 3.00000000000000000000, 0.00000000000000000000, 3.00000000000000000000, 1.00000000000000000000, 3.00000000000000000000
52.00000000000000000000, 0.00000000000000000000, 4215.38427734375000000000, 4811.28173828125000000000, 4440.00000000000000000000, 4556.41015625000000000000, 4166.15380859375000000000, 0.00000000000000000000, 6156.00000000000000000000, 9556.00000000000000000000, 0.00000000000000000000, 0.00000000000000000000, 0.00000000000000000000, 1392.00000000000000000000, 0.00000000000000000000, 3.00000000000000000000, 0.00000000000000000000, 3.00000000000000000000, 1.00000000000000000000, 3.00000000000000000000
53.00000000000000000000, 0.00000000000000000000, 4192.82031250000000000000, 4645.64111328125000000000, 4353.33300781250000000000, 4556.41015625000000000000, 4142.05126953125000000000, 0.00000000000000000000, 0.00000000000000000000, 0.00000000000000000000, 0.00000000000000000000, 0.00000000000000000000, 0.00000000000000000000, 1392.00000000000000000000, 9.00000000000000000000, 3.00000000000000000000, 0.00000000000000000000, 3.00000000000000000000, 1.00000000000000000000, 3.00000000000000000000
54.00000000000000000000, 0.00000000000000000000, 4127.69238281250000000000, 4449.74365234375000000000, 4180.51269531250000000000, 4162.56396484375000000000, 4213.33300781250000000000, 0.00000000000000000000, 6155.00000000000000000000, 9557.00000000000000000000, 0.00000000000000000000, 0.00000000000000000000, 0.00000000000000000000, 1392.00000000000000000000, 17.00000000000000000000, 3.00000000000000000000, 0.00000000000000000000, 3.00000000000000000000, 1.00000000000000000000, 3.00000000000000000000
55.00000000000000000000, 0.00000000000000000000, 4082.05126953125000000000, 4357.43554687500000000000, 4142.05126953125000000000, 4193.84619140625000000000, 4206.15380859375000000000, 0.00000000000000000000, 0.00000000000000000000, 0.00000000000000000000, 0.00000000000000000000, 0.00000000000000000000, 0.00000000000000000000, 1392.00000000000000000000, 25.00000000000000000000, 3.00000000000000000000, 0.00000000000000000000, 3.00000000000000000000, 1.00000000000000000000, 3.00000000000000000000
56.00000000000000000000, 0.00000000000000000000, 4161.02539062500000000000, 4621.02539062500000000000, 4239.48730468750000000000, 4306.66650390625000000000, 4178.97412109375000000000, 0.00000000000000000000, 6155.00000000000000000000, 9558.00000000000000000000, 0.00000000000000000000, 0.00000000000000000000, 0.00000000000000000000, 1392.00000000000000000000, 34.00000000000000000000, 3.00000000000000000000, 0.00000000000000000000, 3.00000000000000000000, 1.00000000000000000000, 3.00000000000000000000
57.00000000000000000000, 0.00000000000000000000, 4234.87158203125000000000, 4903.07666015625000000000, 4283.58984375000000000000, 4089.74340820312500000000, 4248.20507812500000000000, 0.00000000000000000000, 0.00000000000000000000, 0.00000000000000000000, 0.00000000000000000000, 0.00000000000000000000, 0.00000000000000000000, 1392.00000000000000000000, 42.00000000000000000000, 3.00000000000000000000, 0.00000000000000000000, 3.00000000000000000000, 1.00000000000000000000, 3.00000000000000000000
58.00000000000000000000, 0.00000000000000000000, 4208.71777343750000000000, 4856.41015625000000000000, 4335.89746093750000000000, 4271.79492187500000000000, 4222.05126953125000000000, 0.00000000000000000000, 6155.00000000000000000000, 9559.00000000000000000000, 0.00000000000000000000, 0.00000000000000000000, 0.00000000000000000000, 1392.00000000000000000000, 51.00000000000000000000, 3.00000000000000000000, 0.00000000000000000000, 3.00000000000000000000, 1.00000000000000000000, 3.00000000000000000000
58.00000000000000000000, 0.00000000000000000000, 4208.71777343750000000000, 4856.41015625000000000000, 4335.89746093750000000000, 4271.79492187500000000000, 4222.05126953125000000000, 0.00000000000000000000, 6155.00000000000000000000, 9559.00000000000000000000, 0.00000000000000000000, 0.00000000000000000000, 0.00000000000000000000, 1392.00000000000000000000, 59.00000000000000000000, 3.00000000000000000000, 0.00000000000000000000, 3.00000000000000000000, 1.00000000000000000000, 3.00000000000000000000
59.00000000000000000000, 0.00000000000000000000, 4228.71777343750000000000, 4666.66650390625000000000, 4378.46142578125000000000, 4633.33300781250000000000, 4156.41015625000000000000, 0.00000000000000000000, 0.00000000000000000000, 0.00000000000000000000, 0.00000000000000000000, 0.00000000000000000000, 0.00000000000000000000, 1392.00000000000000000000, 67.00000000000000000000, 3.00000000000000000000, 0.00000000000000000000, 3.00000000000000000000, 1.00000000000000000000, 3.00000000000000000000
60.00000000000000000000, 0.00000000000000000000, 4227.17919921875000000000, 4484.61523437500000000000, 4255.89746093750000000000, 4426.15380859375000000000, 4210.25634765625000000000, 0.00000000000000000000, 6154.00000000000000000000, 9559.00000000000000000000, 0.00000000000000000000, 0.00000000000000000000, 0.00000000000000000000, 1392.00000000000000000000, 76.00000000000000000000, 3.00000000000000000000, 0.00000000000000000000, 3.00000000000000000000, 1.00000000000000000000, 3.00000000000000000000
61.00000000000000000000, 0.00000000000000000000, 4208.71777343750000000000, 4477.43554687500000000000, 4197.43603515625000000000, 4218.97412109375000000000, 4280.00000000000000000000, 0.00000000000000000000, 0.00000000000000000000, 0.00000000000000000000, 0.00000000000000000000, 0.00000000000000000000, 0.00000000000000000000, 1392.00000000000000000000, 84.00000000000000000000, 3.00000000000000000000, 0.00000000000000000000, 3.00000000000000000000, 1.00000000000000000000, 3.00000000000000000000
62.00000000000000000000, 0.00000000000000000000, 4224.61523437500000000000, 4728.20507812500000000000, 4291.28173828125000000000, 4307.17919921875000000000, 4236.92285156250000000000, 0.00000000000000000000, 6154.00000000000000000000, 9560.00000000000000000000, 0.00000000000000000000, 0.00000000000000000000, 0.00000000000000000000, 1392.00000000000000000000, 93.00000000000000000000, 3.00000000000000000000, 0.00000000000000000000, 3.00000000000000000000, 1.00000000000000000000, 3.00000000000000000000
63.00000000000000000000, 0.00000000000000000000, 4288.71777343750000000000, 4927.17919921875000000000, 4365.64111328125000000000, 4250.25634765625000000000, 4271.28173828125000000000, 0.00000000000000000000, 0.00000000000000000000, 0.00000000000000000000, 0.00000000000000000000, 0.00000000000000000000, 0.00000000000000000000, 1392.00000000000000000000, 101.00000000000000000000, 3.00000000000000000000, 0.00000000000000000000, 3.00000000000000000000, 1.00000000000000000000, 3.00000000000000000000
64.00000000000000000000, 0.00000000000000000000, 4287.69238281250000000000, 4965.64111328125000000000, 4366.66650390625000000000, 4243.07666015625000000000, 4283.58984375000000000000, 500.00000000000000000000, 6154.00000000000000000000, 9561.00000000000000000000, 0.00000000000000000000, 0.00000000000000000000, 0.00000000000000000000, 1392.00000000000000000000, 109.00000000000000000000, 3.00000000000000000000, 0.00000000000000000000, 3.00000000000000000000, 1.00000000000000000000, 3.00000000000000000000
65.00000000000000000000, 0.00000000000000000000, 4291.28173828125000000000, 5011.79492187500000000000, 4408.71777343750000000000, 4352.30761718750000000000, 4254.87158203125000000000, 500.00000000000000000000, 0.00000000000000000000, 0.00000000000000000000, 0.00000000000000000000, 0.00000000000000000000, 0.00000000000000000000, 1392.00000000000000000000, 118.00000000000000000000, 3.00000000000000000000, 0.00000000000000000000, 3.00000000000000000000, 1.00000000000000000000, 3.00000000000000000000
66.00000000000000000000, 0.00000000000000000000, 4258.46142578125000000000, 4991.28173828125000000000, 4410.76904296875000000000, 4398.97412109375000000000, 4199.48730468750000000000, 16201.00000000000000000000, 6154.00000000000000000000, 9559.00000000000000000000, 0.00000000000000000000, 0.00000000000000000000, 0.00000000000000000000, 1392.00000000000000000000, 126.00000000000000000000, 3.00000000000000000000, 0.00000000000000000000, 3.00000000000000000000, 1.00000000000000000000, 3.00000000000000000000
67.00000000000000000000, 0.00000000000000000000, 4283.07666015625000000000, 4844.61523437500000000000, 4422.05126953125000000000, 4428.71777343750000000000, 4210.76904296875000000000, 500.00000000000000000000, 0.00000000000000000000, 0.00000000000000000000, 0.00000000000000000000, 0.00000000000000000000, 0.00000000000000000000, 1392.00000000000000000000, 135.00000000000000000000, 3.00000000000000000000, 0.00000000000000000000, 3.00000000000000000000, 1.00000000000000000000, 3.00000000000000000000
68.00000000000000000000, 0.00000000000000000000, 4272.30761718750000000000, 4674.35888671875000000000, 4393.84619140625000000000, 4531.28173828125000000000, 4194.35888671875000000000, 0.00000000000000000000, 6154.00000000000000000000, 9561.00000000000000000000, 0.00000000000000000000, 0.00000000000000000000, 0.00000000000000000000, 1392.00000000000000000000, 143.00000000000000000000, 3.00000000000000000000, 0.00000000000000000000, 3.00000000000000000000, 1.00000000000000000000, 3.00000000000000000000
69.00000000000000000000, 0.00000000000000000000, 4241.02539062500000000000, 4595.38427734375000000000, 4367.17919921875000000000, 4603.07666015625000000000, 4168.20507812500000000000, 500.00000000000000000000, 0.00000000000000000000, 0.00000000000000000000, 0.00000000000000000000, 0.00000000000000000000, 0.00000000000000000000, 1392.00000000000000000000, 151.00000000000000000000, 3.00000000000000000000, 0.00000000000000000000, 3.00000000000000000000, 1.00000000000000000000, 3.00000000000000000000
70.00000000000000000000, 0.00000000000000000000, 4218.97412109375000000000, 4578.46142578125000000000, 4338.97412109375000000000, 4557.94873046875000000000, 4174.35888671875000000000, 16159.00000000000000000000, 6154.00000000000000000000, 9561.00000000000000000000, 0.00000000000000000000, 0.00000000000000000000, 0.00000000000000000000, 1392.00000000000000000000, 160.00000000000000000000, 3.00000000000000000000, 0.00000000000000000000, 3.00000000000000000000, 1.00000000000000000000, 3.00000000000000000000
71.00000000000000000000, 0.00000000000000000000, 4194.87158203125000000000, 4488.20507812500000000000, 4289.23046875000000000000, 4406.15380859375000000000, 4218.46142578125000000000, 500.00000000000000000000, 0.00000000000000000000, 0.00000000000000000000, 0.00000000000000000000, 0.00000000000000000000, 0.00000000000000000000, 1392.00000000000000000000, 168.00000000000000000000, 3.00000000000000000000, 0.00000000000000000000, 3.00000000000000000000, 1.00000000000000000000, 3.00000000000000000000
72.00000000000000000000, 0.00000000000000000000, 4169.23046875000000000000, 4327.69238281250000000000, 4218.97412109375000000000, 4331.79492187500000000000, 4227.69238281250000000000, 500.00000000000000000000, 6154.00000000000000000000, 9562.00000000000000000000, 0.00000000000000000000, 0.00000000000000000000, 0.00000000000000000000, 1392.00000000000000000000, 177.00000000000000000000, 3.00000000000000000000, 0.00000000000000000000, 3.00000000000000000000, 1.00000000000000000000, 3.00000000000000000000
73.00000000000000000000, 0.00000000000000000000, 4204.61523437500000000000, 4454.87158203125000000000, 4202.56396484375000000000, 4237.43603515625000000000, 4236.41015625000000000000, 0.00000000000000000000, 0.00000000000000000000, 0.00000000000000000000, 0.00000000000000000000, 0.00000000000000000000, 0.00000000000000000000, 1392.00000000000000000000, 185.00000000000000000000, 3.00000000000000000000, 0.00000000000000000000, 3.00000000000000000000, 0.00000000000000000000, 3.00000000000000000000
74.00000000000000000000, 0.00000000000000000000, 4297.43603515625000000000, 4869.23046875000000000000, 4268.20507812500000000000, 4077.43579101562500000000, 4297.94873046875000000000, 500.00000000000000000000, 6154.00000000000000000000, 9562.00000000000000000000, 0.00000000000000000000, 0.00000000000000000000, 0.00000000000000000000, 1392.00000000000000000000, 193.00000000000000000000, 3.00000000000000000000, 0.00000000000000000000, 3.00000000000000000000, 0.00000000000000000000, 3.00000000000000000000
75.00000000000000000000, 0.00000000000000000000, 4303.58984375000000000000, 5008.20507812500000000000, 4360.00000000000000000000, 4255.89746093750000000000, 4262.56396484375000000000, 16333.00000000000000000000, 0.00000000000000000000, 0.00000000000000000000, 0.00000000000000000000, 0.00000000000000000000, 0.00000000000000000000, 1392.00000000000000000000, 202.00000000000000000000, 3.00000000000000000000, 0.00000000000000000000, 3.00000000000000000000, 0.00000000000000000000, 3.00000000000000000000
76.00000000000000000000, 0.00000000000000000000, 4305.64111328125000000000, 4874.35888671875000000000, 4380.00000000000000000000, 4406.66650390625000000000, 4233.33300781250000000000, 500.00000000000000000000, 6154.00000000000000000000, 9563.00000000000000000000, 0.00000000000000000000, 0.00000000000000000000, 0.00000000000000000000, 1392.00000000000000000000, 210.00000000000000000000, 3.00000000000000000000, 0.00000000000000000000, 3.00000000000000000000, 0.00000000000000000000, 3.00000000000000000000
77.00000000000000000000, 0.00000000000000000000, 4316.41015625000000000000, 4913.84619140625000000000, 4326.66650390625000000000, 4203.07666015625000000000, 4262.05126953125000000000, 500.00000000000000000000, 0.00000000000000000000, 0.00000000000000000000, 0.00000000000000000000, 0.00000000000000000000, 0.00000000000000000000, 1392.00000000000000000000, 219.00000000000000000000, 3.00000000000000000000, 0.00000000000000000000, 3.00000000000000000000, 0.00000000000000000000, 3.00000000000000000000
78.00000000000000000000, 0.00000000000000000000, 4331.79492187500000000000, 5017.94873046875000000000, 4350.76904296875000000000, 4160.51269531250000000000, 4298.97412109375000000000, 450.00000000000000000000, 6154.00000000000000000000, 9563.00000000000000000000, 0.00000000000000000000, 0.00000000000000000000, 0.00000000000000000000, 1392.00000000000000000000, 227.00000000000000000000, 3.00000000000000000000, 0.00000000000000000000, 3.00000000000000000000, 0.00000000000000000000, 3.00000000000000000000
79.00000000000000000000, 0.00000000000000000000, 4334.35888671875000000000, 5104.61523437500000000000, 4418.46142578125000000000, 4350.76904296875000000000, 4256.41015625000000000000, 16333.00000000000000000000, 0.00000000000000000000, 0.00000000000000000000, 0.00000000000000000000, 0.00000000000000000000, 0.00000000000000000000, 1392.00000000000000000000, 235.00000000000000000000, 3.00000000000000000000, 0.00000000000000000000, 3.00000000000000000000, 0.00000000000000000000, 3.00000000000000000000
80.00000000000000000000, 0.00000000000000000000, 4358.97412109375000000000, 5129.74365234375000000000, 4433.33300781250000000000, 4332.82031250000000000000, 4257.43603515625000000000, 450.00000000000000000000, 6154.00000000000000000000, 9564.00000000000000000000, 0.00000000000000000000, 0.00000000000000000000, 0.00000000000000000000, 1392.00000000000000000000, 244.00000000000000000000, 3.00000000000000000000, 0.00000000000000000000, 3.00000000000000000000, 0.00000000000000000000, 3.00000000000000000000
81.00000000000000000000, 0.00000000000000000000, 4295.89746093750000000000, 4859.48730468750000000000, 4344.10253906250000000000, 4338.46142578125000000000, 4228.71777343750000000000, 450.00000000000000000000, 0.00000000000000000000, 0.00000000000000000000, 0.00000000000000000000, 0.00000000000000000000, 0.00000000000000000000, 1392.00000000000000000000, 252.00000000000000000000, 3.00000000000000000000, 0.00000000000000000000, 3.00000000000000000000, 0.00000000000000000000, 3.00000000000000000000
82.00000000000000000000, 0.00000000000000000000, 4259.48730468750000000000, 4596.41015625000000000000, 4346.66650390625000000000, 4556.92285156250000000000, 4196.41015625000000000000, 450.00000000000000000000, 6154.00000000000000000000, 9565.00000000000000000000, 0.00000000000000000000, 0.00000000000000000000, 0.00000000000000000000, 1392.00000000000000000000, 261.00000000000000000000, 3.00000000000000000000, 0.00000000000000000000, 3.00000000000000000000, 0.00000000000000000000, 3.00000000000000000000
83.00000000000000000000, 0.00000000000000000000, 4269.23046875000000000000, 4574.35888671875000000000, 4329.74365234375000000000, 4489.74365234375000000000, 4213.33300781250000000000, 16333.00000000000000000000, 0.00000000000000000000, 0.00000000000000000000, 0.00000000000000000000, 0.00000000000000000000, 0.00000000000000000000, 1392.00000000000000000000, 269.00000000000000000000, 3.00000000000000000000, 0.00000000000000000000, 3.00000000000000000000, 0.00000000000000000000, 3.00000000000000000000
84.00000000000000000000, 0.00000000000000000000, 4284.61523437500000000000, 4449.74365234375000000000, 4226.66650390625000000000, 4198.46142578125000000000, 4307.17919921875000000000, 450.00000000000000000000, 6154.00000000000000000000, 9566.00000000000000000000, 0.00000000000000000000, 0.00000000000000000000, 0.00000000000000000000, 1392.00000000000000000000, 277.00000000000000000000, 3.00000000000000000000, 0.00000000000000000000, 3.00000000000000000000, 0.00000000000000000000, 3.00000000000000000000
85.00000000000000000000, 0.00000000000000000000, 4247.17919921875000000000, 4428.20507812500000000000, 4175.89746093750000000000, 4181.53857421875000000000, 4294.87158203125000000000, 450.00000000000000000000, 0.00000000000000000000, 0.00000000000000000000, 0.00000000000000000000, 0.00000000000000000000, 0.00000000000000000000, 1392.00000000000000000000, 286.00000000000000000000, 3.00000000000000000000, 0.00000000000000000000, 3.00000000000000000000, 0.00000000000000000000, 3.00000000000000000000
86.00000000000000000000, 0.00000000000000000000, 4299.48730468750000000000, 4969.23046875000000000000, 4343.58984375000000000000, 4296.92285156250000000000, 4210.76904296875000000000, 450.00000000000000000000, 6154.00000000000000000000, 9568.00000000000000000000, 0.00000000000000000000, 0.00000000000000000000, 0.00000000000000000000, 1392.00000000000000000000, 294.00000000000000000000, 3.00000000000000000000, 0.00000000000000000000, 3.00000000000000000000, 0.00000000000000000000, 3.00000000000000000000
87.00000000000000000000, 0.00000000000000000000, 4368.20507812500000000000, 5242.05126953125000000000, 4439.48730468750000000000, 4270.76904296875000000000, 4221.02539062500000000000, 16333.00000000000000000000, 0.00000000000000000000, 0.00000000000000000000, 0.00000000000000000000, 0.00000000000000000000, 0.00000000000000000000, 1392.00000000000000000000, 303.00000000000000000000, 3.00000000000000000000, 0.00000000000000000000, 3.00000000000000000000, 0.00000000000000000000, 3.00000000000000000000
88.00000000000000000000, 0.00000000000000000000, 4317.43603515625000000000, 4935.89746093750000000000, 4421.02539062500000000000, 4460.00000000000000000000, 4196.41015625000000000000, 450.00000000000000000000, 6155.00000000000000000000, 9569.00000000000000000000, 0.00000000000000000000, 0.00000000000000000000, 0.00000000000000000000, 1392.00000000000000000000, 311.00000000000000000000, 3.00000000000000000000, 0.00000000000000000000, 3.00000000000000000000, 0.00000000000000000000, 3.00000000000000000000
89.00000000000000000000, 0.00000000000000000000, 4253.33300781250000000000, 4776.92285156250000000000, 4416.92285156250000000000, 4687.17919921875000000000, 4109.74365234375000000000, 450.00000000000000000000, 0.00000000000000000000, 0.00000000000000000000, 0.00000000000000000000, 0.00000000000000000000, 0.00000000000000000000, 1392.00000000000000000000, 320.00000000000000000000, 3.00000000000000000000, 0.00000000000000000000, 3.00000000000000000000, 0.00000000000000000000, 3.00000000000000000000
90.00000000000000000000, 0.00000000000000000000, 4242.05126953125000000000, 4648.20507812500000000000, 4293.33300781250000000000, 4457.94873046875000000000, 4160.00000000000000000000, 450.00000000000000000000, 6156.00000000000000000000, 9571.00000000000000000000, 0.00000000000000000000, 0.00000000000000000000, 0.00000000000000000000, 1392.00000000000000000000, 328.00000000000000000000, 3.00000000000000000000, 0.00000000000000000000, 3.00000000000000000000, 0.00000000000000000000, 3.00000000000000000000
91.00000000000000000000, 0.00000000000000000000, 4258.46142578125000000000, 4476.92285156250000000000, 4195.89746093750000000000, 4244.61523437500000000000, 4276.41015625000000000000, 16333.00000000000000000000, 0.00000000000000000000, 0.00000000000000000000, 0.00000000000000000000, 0.00000000000000000000, 0.00000000000000000000, 1392.00000000000000000000, 336.00000000000000000000, 3.00000000000000000000, 0.00000000000000000000, 3.00000000000000000000, 0.00000000000000000000, 3.00000000000000000000
92.00000000000000000000, 0.00000000000000000000, 4246.66650390625000000000, 4595.89746093750000000000, 4226.66650390625000000000, 4240.51269531250000000000, 4255.89746093750000000000, 450.00000000000000000000, 6157.00000000000000000000, 9574.00000000000000000000, 0.00000000000000000000, 0.00000000000000000000, 0.00000000000000000000, 1392.00000000000000000000, 345.00000000000000000000, 3.00000000000000000000, 0.00000000000000000000, 3.00000000000000000000, 0.00000000000000000000, 3.00000000000000000000
93.00000000000000000000, 0.00000000000000000000, 4278.97412109375000000000, 4769.74365234375000000000, 4264.61523437500000000000, 4138.97412109375000000000, 4262.05126953125000000000, 450.00000000000000000000, 0.00000000000000000000, 0.00000000000000000000, 0.00000000000000000000, 0.00000000000000000000, 0.00000000000000000000, 1392.00000000000000000000, 353.00000000000000000000, 3.00000000000000000000, 0.00000000000000000000, 3.00000000000000000000, 0.00000000000000000000, 3.00000000000000000000
94.00000000000000000000, 0.00000000000000000000, 4290.76904296875000000000, 4946.66650390625000000000, 4304.61523437500000000000, 4134.35888671875000000000, 4259.48730468750000000000, 450.00000000000000000000, 6158.00000000000000000000, 9577.00000000000000000000, 0.00000000000000000000, 0.00000000000000000000, 0.00000000000000000000, 1392.00000000000000000000, 362.00000000000000000000, 3.00000000000000000000, 0.00000000000000000000, 3.00000000000000000000, 0.00000000000000000000, 3.00000000000000000000
95.00000000000000000000, 0.00000000000000000000, 4315.38427734375000000000, 5156.41015625000000000000, 4405.64111328125000000000, 4273.33300781250000000000, 4237.94873046875000000000, 16333.00000000000000000000, 0.00000000000000000000, 0.00000000000000000000, 0.00000000000000000000, 0.00000000000000000000, 0.00000000000000000000, 1392.00000000000000000000, 370.00000000000000000000, 3.00000000000000000000, 0.00000000000000000000, 3.00000000000000000000, 0.00000000000000000000, 3.00000000000000000000
96.00000000000000000000, 0.00000000000000000000, 4292.82031250000000000000, 5121.53857421875000000000, 4433.84619140625000000000, 4428.20507812500000000000, 4177.94873046875000000000, 450.00000000000000000000, 6160.00000000000000000000, 9579.00000000000000000000, 0.00000000000000000000, 0.00000000000000000000, 0.00000000000000000000, 1392.00000000000000000000, 378.00000000000000000000, 3.00000000000000000000, 0.00000000000000000000, 3.00000000000000000000, 0.00000000000000000000, 3.00000000000000000000
97.00000000000000000000, 0.00000000000000000000, 4285.64111328125000000000, 4930.76904296875000000000, 4456.92285156250000000000, 4586.66650390625000000000, 4143.58984375000000000000, 450.00000000000000000000, 0.00000000000000000000, 0.00000000000000000000, 0.00000000000000000000, 0.00000000000000000000, 0.00000000000000000000, 1392.00000000000000000000, 387.00000000000000000000, 3.00000000000000000000, 0.00000000000000000000, 3.00000000000000000000, 0.00000000000000000000, 3.00000000000000000000
98.00000000000000000000, 0.00000000000000000000, 4242.56396484375000000000, 4774.87158203125000000000, 4388.20507812500000000000, 4500.00000000000000000000, 4133.33300781250000000000, 450.00000000000000000000, 6161.00000000000000000000, 9582.00000000000000000000, 0.00000000000000000000, 0.00000000000000000000, 0.00000000000000000000, 1392.00000000000000000000, 395.00000000000000000000, 3.00000000000000000000, 0.00000000000000000000, 3.00000000000000000000, 0.00000000000000000000, 3.00000000000000000000
99.00000000000000000000, 0.00000000000000000000, 4191.79492187500000000000, 4555.89746093750000000000, 4264.61523437500000000000, 4272.82031250000000000000, 4196.92285156250000000000, 16333.00000000000000000000, 0.00000000000000000000, 0.00000000000000000000, 0.00000000000000000000, 0.00000000000000000000, 0.00000000000000000000, 1392.00000000000000000000, 404.00000000000000000000, 3.00000000000000000000, 0.00000000000000000000, 3.00000000000000000000, 0.00000000000000000000, 3.00000000000000000000
100.00000000000000000000, 0.00000000000000000000, 4175.38427734375000000000, 4369.23046875000000000000, 4183.07666015625000000000, 4263.07666015625000000000, 4222.05126953125000000000, 450.00000000000000000000, 6163.00000000000000000000, 9585.00000000000000000000, 0.00000000000000000000, 0.00000000000000000000, 0.00000000000000000000, 1392.00000000000000000000, 412.00000000000000000000, 3.00000000000000000000, 0.00000000000000000000, 3.00000000000000000000, 0.00000000000000000000, 3.00000000000000000000
101.00000000000000000000, 0.00000000000000000000, 4214.87158203125000000000, 4445.12792968750000000000, 4170.25634765625000000000, 4233.33300781250000000000, 4240.00000000000000000000, 450.00000000000000000000, 0.00000000000000000000, 0.00000000000000000000, 0.00000000000000000000, 0.00000000000000000000, 0.00000000000000000000, 1392.00000000000000000000, 420.00000000000000000000, 3.00000000000000000000, 0.00000000000000000000, 3.00000000000000000000, 0.00000000000000000000, 3.00000000000000000000
102.00000000000000000000, 0.00000000000000000000, 4221.02539062500000000000, 4662.56396484375000000000, 4185.64111328125000000000, 4110.25634765625000000000, 4257.43603515625000000000, 450.00000000000000000000, 6166.00000000000000000000, 9588.00000000000000000000, 0.00000000000000000000, 0.00000000000000000000, 0.00000000000000000000, 1392.00000000000000000000, 429.00000000000000000000, 3.00000000000000000000, 0.00000000000000000000, 3.00000000000000000000, 0.00000000000000000000, 3.00000000000000000000
103.00000000000000000000, 0.00000000000000000000, 4245.12792968750000000000, 5037.94873046875000000000, 4333.33300781250000000000, 4196.41015625000000000000, 4213.33300781250000000000, 16333.00000000000000000000, 0.00000000000000000000, 0.00000000000000000000, 0.00000000000000000000, 0.00000000000000000000, 0.00000000000000000000, 1392.00000000000000000000, 437.00000000000000000000, 3.00000000000000000000, 0.00000000000000000000, 3.00000000000000000000, 0.00000000000000000000, 3.00000000000000000000
104.00000000000000000000, 0.00000000000000000000, 4298.46142578125000000000, 5291.79492187500000000000, 4456.41015625000000000000, 4382.56396484375000000000, 4165.12792968750000000000, 450.00000000000000000000, 6168.00000000000000000000, 9591.00000000000000000000, 0.00000000000000000000, 0.00000000000000000000, 0.00000000000000000000, 1392.00000000000000000000, 446.00000000000000000000, 3.00000000000000000000, 0.00000000000000000000, 3.00000000000000000000, 0.00000000000000000000, 3.00000000000000000000
105.00000000000000000000, 0.00000000000000000000, 4261.02539062500000000000, 5146.15380859375000000000, 4435.89746093750000000000, 4506.15380859375000000000, 4123.58984375000000000000, 450.00000000000000000000, 0.00000000000000000000, 0.00000000000000000000, 0.00000000000000000000, 0.00000000000000000000, 0.00000000000000000000, 1392.00000000000000000000, 454.00000000000000000000, 3.00000000000000000000, 0.00000000000000000000, 3.00000000000000000000, 0.00000000000000000000, 3.00000000000000000000
106.00000000000000000000, 0.00000000000000000000, 4235.89746093750000000000, 4946.66650390625000000000, 4427.69238281250000000000, 4590.76904296875000000000, 4104.61523437500000000000, 450.00000000000000000000, 6170.00000000000000000000, 9594.00000000000000000000, 0.00000000000000000000, 0.00000000000000000000, 0.00000000000000000000, 1392.00000000000000000000, 462.00000000000000000000, 3.00000000000000000000, 0.00000000000000000000, 3.00000000000000000000, 0.00000000000000000000, 3.00000000000000000000
107.00000000000000000000, 0.00000000000000000000, 4250.25634765625000000000, 4810.76904296875000000000, 4394.35888671875000000000, 4602.56396484375000000000, 4122.05126953125000000000, 16333.00000000000000000000, 0.00000000000000000000, 0.00000000000000000000, 0.00000000000000000000, 0.00000000000000000000, 0.00000000000000000000, 1392.00000000000000000000, 471.00000000000000000000, 3.00000000000000000000, 0.00000000000000000000, 3.00000000000000000000, 0.00000000000000000000, 3.00000000000000000000
108.00000000000000000000, 0.00000000000000000000, 4289.23046875000000000000, 4669.74365234375000000000, 4331.28173828125000000000, 4555.89746093750000000000, 4211.79492187500000000000, 450.00000000000000000000, 6172.00000000000000000000, 9597.00000000000000000000, 0.00000000000000000000, 0.00000000000000000000, 0.00000000000000000000, 1392.00000000000000000000, 479.00000000000000000000, 3.00000000000000000000, 0.00000000000000000000, 3.00000000000000000000, 0.00000000000000000000, 3.00000000000000000000
109.00000000000000000000, 0.00000000000000000000, 4295.89746093750000000000, 4561.53857421875000000000, 4266.15380859375000000000, 4431.28173828125000000000, 4255.89746093750000000000, 450.00000000000000000000, 0.00000000000000000000, 0.00000000000000000000, 0.00000000000000000000, 0.00000000000000000000, 0.00000000000000000000, 1392.00000000000000000000, 488.00000000000000000000, 3.00000000000000000000, 0.00000000000000000000, 3.00000000000000000000, 0.00000000000000000000, 3.00000000000000000000
110.00000000000000000000, 0.00000000000000000000, 4309.23046875000000000000, 4454.35888671875000000000, 4240.00000000000000000000, 4373.84619140625000000000, 4272.82031250000000000000, 450.00000000000000000000, 6174.00000000000000000000, 9600.00000000000000000000, 0.00000000000000000000, 0.00000000000000000000, 0.00000000000000000000, 1392.00000000000000000000, 496.00000000000000000000, 3.00000000000000000000, 0.00000000000000000000, 3.00000000000000000000, 0.00000000000000000000, 3.00000000000000000000
111.00000000000000000000, 0.00000000000000000000, 4285.64111328125000000000, 4378.97412109375000000000, 4177.94873046875000000000, 4331.28173828125000000000, 4281.53857421875000000000, 16333.00000000000000000000, 0.00000000000000000000, 0.00000000000000000000, 0.00000000000000000000, 0.00000000000000000000, 0.00000000000000000000, 1392.00000000000000000000, 503.00000000000000000000, 3.00000000000000000000, 0.00000000000000000000, 3.00000000000000000000, 0.00000000000000000000, 3.00000000000000000000
112.00000000000000000000, 0.00000000000000000000, 4363.58984375000000000000, 4473.84619140625000000000, 4214.35888671875000000000, 4250.76904296875000000000, 4343.58984375000000000000, 450.00000000000000000000, 6176.00000000000000000000, 9603.00000000000000000000, 0.00000000000000000000, 0.00000000000000000000, 0.00000000000000000000, 1392.00000000000000000000, 511.00000000000000000000, 3.00000000000000000000, 0.00000000000000000000, 3.00000000000000000000, 0.00000000000000000000, 3.00000000000000000000
113.00000000000000000000, 0.00000000000000000000, 4382.05126953125000000000, 4555.89746093750000000000, 4287.69238281250000000000, 4370.76904296875000000000, 4307.17919921875000000000, 450.00000000000000000000, 0.00000000000000000000, 0.00000000000000000000, 0.00000000000000000000, 0.00000000000000000000, 0.00000000000000000000, 1392.00000000000000000000, 518.00000000000000000000, 3.00000000000000000000, 0.00000000000000000000, 3.00000000000000000000, 0.00000000000000000000, 3.00000000000000000000
114.00000000000000000000, 0.00000000000000000000, 4312.30761718750000000000, 4505.64111328125000000000, 4330.25634765625000000000, 4612.30761718750000000000, 4222.05126953125000000000, 450.00000000000000000000, 6178.00000000000000000000, 9606.00000000000000000000, 0.00000000000000000000, 0.00000000000000000000, 0.00000000000000000000, 1392.00000000000000000000, 526.00000000000000000000, 3.00000000000000000000, 0.00000000000000000000, 3.00000000000000000000, 0.00000000000000000000, 3.00000000000000000000
115.00000000000000000000, 0.00000000000000000000, 4268.71777343750000000000, 4483.58984375000000000000, 4268.20507812500000000000, 4487.69238281250000000000, 4214.87158203125000000000, 16333.00000000000000000000, 0.00000000000000000000, 0.00000000000000000000, 0.00000000000000000000, 0.00000000000000000000, 0.00000000000000000000, 1392.00000000000000000000, 533.00000000000000000000, 3.00000000000000000000, 0.00000000000000000000, 3.00000000000000000000, 0.00000000000000000000, 3.00000000000000000000
116.00000000000000000000, 0.00000000000000000000, 4261.02539062500000000000, 4490.76904296875000000000, 4227.69238281250000000000, 4267.69238281250000000000, 4262.56396484375000000000, 450.00000000000000000000, 6180.00000000000000000000, 9609.00000000000000000000, 0.00000000000000000000, 0.00000000000000000000, 0.00000000000000000000, 1392.00000000000000000000, 540.00000000000000000000, 3.00000000000000000000, 0.00000000000000000000, 3.00000000000000000000, 0.00000000000000000000, 3.00000000000000000000
117.00000000000000000000, 0.00000000000000000000, 4211.79492187500000000000, 4423.58984375000000000000, 4208.20507812500000000000, 4293.33300781250000000000, 4256.41015625000000000000, 450.00000000000000000000, 0.00000000000000000000, 0.00000000000000000000, 0.00000000000000000000, 0.00000000000000000000, 0.00000000000000000000, 1392.00000000000000000000, 548.00000000000000000000, 3.00000000000000000000, 0.00000000000000000000, 3.00000000000000000000, 0.00000000000000000000, 3.00000000000000000000
118.00000000000000000000, 0.00000000000000000000, 4186.66650390625000000000, 4374.35888671875000000000, 4188.71777343750000000000, 4295.38427734375000000000, 4251.28173828125000000000, 450.00000000000000000000, 6182.00000000000000000000, 9611.00000000000000000000, 0.00000000000000000000, 0.00000000000000000000, 0.00000000000000000000, 1392.00000000000000000000, 555.00000000000000000000, 3.00000000000000000000, 0.00000000000000000000, 3.00000000000000000000, 0.00000000000000000000, 3.00000000000000000000
119.00000000000000000000, 0.00000000000000000000, 4217.43603515625000000000, 4406.66650390625000000000, 4197.43603515625000000000, 4254.87158203125000000000, 4266.66650390625000000000, 16333.00000000000000000000, 0.00000000000000000000, 0.00000000000000000000, 0.00000000000000000000, 0.00000000000000000000, 0.00000000000000000000, 1392.00000000000000000000, 563.00000000000000000000, 3.00000000000000000000, 0.00000000000000000000, 3.00000000000000000000, 0.00000000000000000000, 3.00000000000000000000
120.00000000000000000000, 0.00000000000000000000, 4215.89746093750000000000, 4357.43554687500000000000, 4171.79492187500000000000, 4213.33300781250000000000, 4277.94873046875000000000, 450.00000000000000000000, 6185.00000000000000000000, 9614.00000000000000000000, 0.00000000000000000000, 0.00000000000000000000, 0.00000000000000000000, 1392.00000000000000000000, 570.00000000000000000000, 3.00000000000000000000, 0.00000000000000000000, 3.00000000000000000000, 0.00000000000000000000, 3.00000000000000000000
121.00000000000000000000, 0.00000000000000000000, 4227.69238281250000000000, 4433.33300781250000000000, 4162.05126953125000000000, 4164.61523437500000000000, 4299.48730468750000000000, 450.00000000000000000000, 0.00000000000000000000, 0.00000000000000000000, 0.00000000000000000000, 0.00000000000000000000, 0.00000000000000000000, 1392.00000000000000000000, 577.00000000000000000000, 3.00000000000000000000, 0.00000000000000000000, 3.00000000000000000000, 0.00000000000000000000, 3.00000000000000000000
122.00000000000000000000, 0.00000000000000000000, 4266.15380859375000000000, 4749.23046875000000000000, 4220.00000000000000000000, 4116.92285156250000000000, 4291.28173828125000000000, 450.00000000000000000000, 6187.00000000000000000000, 9616.00000000000000000000, 0.00000000000000000000, 0.00000000000000000000, 0.00000000000000000000, 1392.00000000000000000000, 585.00000000000000000000, 3.00000000000000000000, 0.00000000000000000000, 3.00000000000000000000, 0.00000000000000000000, 3.00000000000000000000
123.00000000000000000000, 0.00000000000000000000, 4323.58984375000000000000, 4947.69238281250000000000, 4290.25634765625000000000, 4078.97436523437500000000, 4304.10253906250000000000, 16333.00000000000000000000, 0.00000000000000000000, 0.00000000000000000000, 0.00000000000000000000, 0.00000000000000000000, 0.00000000000000000000, 1392.00000000000000000000, 592.00000000000000000000, 3.00000000000000000000, 0.00000000000000000000, 3.00000000000000000000, 0.00000000000000000000, 3.00000000000000000000
124.00000000000000000000, 0.00000000000000000000, 4313.84619140625000000000, 4990.25634765625000000000, 4335.89746093750000000000, 4230.76904296875000000000, 4246.66650390625000000000, 450.00000000000000000000, 6182.00000000000000000000, 9611.00000000000000000000, 0.00000000000000000000, 0.00000000000000000000, 0.00000000000000000000, 1392.00000000000000000000, 599.00000000000000000000, 3.00000000000000000000, 0.00000000000000000000, 3.00000000000000000000, 0.00000000000000000000, 3.00000000000000000000
125.00000000000000000000, 0.00000000000000000000, 4295.38427734375000000000, 5025.12792968750000000000, 4377.94873046875000000000, 4388.71777343750000000000, 4195.38427734375000000000, 450.00000000000000000000, 0.00000000000000000000, 0.00000000000000000000, 0.00000000000000000000, 0.00000000000000000000, 0.00000000000000000000, 1392.00000000000000000000, 607.00000000000000000000, 3.00000000000000000000, 0.00000000000000000000, 3.00000000000000000000, 0.00000000000000000000, 3.00000000000000000000
126.00000000000000000000, 0.00000000000000000000, 4302.56396484375000000000, 5122.05126953125000000000, 4424.10253906250000000000, 4419.48730468750000000000, 4187.69238281250000000000, 450.00000000000000000000, 6187.00000000000000000000, 9616.00000000000000000000, 0.00000000000000000000, 0.00000000000000000000, 0.00000000000000000000, 1392.00000000000000000000, 614.00000000000000000000, 3.00000000000000000000, 0.00000000000000000000, 3.00000000000000000000, 0.00000000000000000000, 3.00000000000000000000
127.00000000000000000000, 0.00000000000000000000, 4372.30761718750000000000, 5144.61523437500000000000, 4471.28173828125000000000, 4323.58984375000000000000, 4274.35888671875000000000, 231.00000000000000000000, 0.00000000000000000000, 0.00000000000000000000, 0.00000000000000000000, 0.00000000000000000000, 0.00000000000000000000, 1392.00000000000000000000, 622.00000000000000000000, 3.00000000000000000000, 0.00000000000000000000, 3.00000000000000000000, 0.00000000000000000000, 3.00000000000000000000
128.00000000000000000000, 1.00000000000000000000, 4353.84619140625000000000, 5041.53857421875000000000, 4450.25634765625000000000, 4361.02539062500000000000, 4262.56396484375000000000, 500.00000000000000000000, 3094.00000000000000000000, 4809.00000000000000000000, 0.00000000000000000000, 0.00000000000000000000, 0.00000000000000000000, 1392.00000000000000000000, 629.00000000000000000000, 3.00000000000000000000, 0.00000000000000000000, 3.00000000000000000000, 0.00000000000000000000, 3.00000000000000000000
0.00000000000000000000, 0.00000000000000000000, 4335.38427734375000000000, 4938.46142578125000000000, 4429.23046875000000000000, 4398.97412109375000000000, 4250.76904296875000000000, 500.00000000000000000000, 6189.00000000000000000000, 9619.00000000000000000000, 0.00000000000000000000, 0.00000000000000000000, 0.00000000000000000000, 1392.00000000000000000000, 636.00000000000000000000, 3.00000000000000000000, 0.00000000000000000000, 3.00000000000000000000, 0.00000000000000000000, 3.00000000000000000000
1.00000000000000000000, 0.00000000000000000000, 4265.64111328125000000000, 4657.94873046875000000000, 4395.38427734375000000000, 4629.74365234375000000000, 4166.15380859375000000000, 500.00000000000000000000, 0.00000000000000000000, 0.00000000000000000000, 0.00000000000000000000, 0.00000000000000000000, 0.00000000000000000000, 1392.00000000000000000000, 644.00000000000000000000, 3.00000000000000000000, 0.00000000000000000000, 3.00000000000000000000, 0.00000000000000000000, 3.00000000000000000000
2.00000000000000000000, 0.00000000000000000000, 4231.79492187500000000000, 4477.43554687500000000000, 4311.79492187500000000000, 4567.17919921875000000000, 4170.25634765625000000000, 16256.00000000000000000000, 6191.00000000000000000000, 9622.00000000000000000000, 0.00000000000000000000, 0.00000000000000000000, 0.00000000000000000000, 1392.00000000000000000000, 651.00000000000000000000, 3.00000000000000000000, 0.00000000000000000000, 3.00000000000000000000, 0.00000000000000000000, 3.00000000000000000000
3.00000000000000000000, 0.00000000000000000000, 4246.15380859375000000000, 4377.43554687500000000000, 4181.53857421875000000000, 4181.53857421875000000000, 4290.76904296875000000000, 500.00000000000000000000, 0.00000000000000000000, 0.00000000000000000000, 0.00000000000000000000, 0.00000000000000000000, 0.00000000000000000000, 1392.00000000000000000000, 659.00000000000000000000, 3.00000000000000000000, 0.00000000000000000000, 3.00000000000000000000, 0.00000000000000000000, 3.00000000000000000000
4.00000000000000000000, 0.00000000000000000000, 4250.76904296875000000000, 4571.28173828125000000000, 4177.43603515625000000000, 4060.51269531250000000000, 4312.82031250000000000000, 3.00000000000000000000, 6193.00000000000000000000, 9625.00000000000000000000, 0.00000000000000000000, 0.00000000000000000000, 0.00000000000000000000, 1392.00000000000000000000, 666.00000000000000000000, 3.00000000000000000000, 0.00000000000000000000, 3.00000000000000000000, 0.00000000000000000000, 3.00000000000000000000
5.00000000000000000000, 0.00000000000000000000, 4292.82031250000000000000, 5109.74365234375000000000, 4377.43554687500000000000, 4250.25634765625000000000, 4228.20507812500000000000, 500.00000000000000000000, 0.00000000000000000000, 0.00000000000000000000, 0.00000000000000000000, 0.00000000000000000000, 0.00000000000000000000, 1392.00000000000000000000, 673.00000000000000000000, 3.00000000000000000000, 0.00000000000000000000, 3.00000000000000000000, 0.00000000000000000000, 3.00000000000000000000
6.00000000000000000000, 0.00000000000000000000, 4341.02539062500000000000, 5274.35888671875000000000, 4450.76904296875000000000, 4295.89746093750000000000, 4202.05126953125000000000, 16101.00000000000000000000, 6195.00000000000000000000, 9628.00000000000000000000, 0.00000000000000000000, 0.00000000000000000000, 0.00000000000000000000, 1392.00000000000000000000, 681.00000000000000000000, 3.00000000000000000000, 0.00000000000000000000, 3.00000000000000000000, 0.00000000000000000000, 3.00000000000000000000
7.00000000000000000000, 0.00000000000000000000, 4298.46142578125000000000, 4920.00000000000000000000, 4404.10253906250000000000, 4484.10253906250000000000, 4167.69238281250000000000, 500.00000000000000000000, 0.00000000000000000000, 0.00000000000000000000, 0.00000000000000000000, 0.00000000000000000000, 0.00000000000000000000, 1392.00000000000000000000, 688.00000000000000000000, 3.00000000000000000000, 0.00000000000000000000, 3.00000000000000000000, 0.00000000000000000000, 3.00000000000000000000
8.00000000000000000000, 0.00000000000000000000, 4223.58984375000000000000, 4569.23046875000000000000, 4355.38427734375000000000, 4685.12792968750000000000, 4142.56396484375000000000, 500.00000000000000000000, 6197.00000000000000000000, 9631.00000000000000000000, 0.00000000000000000000, 0.00000000000000000000, 0.00000000000000000000, 1392.00000000000000000000, 695.00000000000000000000, 3.00000000000000000000, 0.00000000000000000000, 3.00000000000000000000, 0.00000000000000000000, 3.00000000000000000000
9.00000000000000000000, 0.00000000000000000000, 4194.87158203125000000000, 4411.79492187500000000000, 4233.84619140625000000000, 4442.05126953125000000000, 4191.79492187500000000000, 2.00000000000000000000, 0.00000000000000000000, 0.00000000000000000000, 0.00000000000000000000, 0.00000000000000000000, 0.00000000000000000000, 1392.00000000000000000000, 703.00000000000000000000, 3.00000000000000000000, 0.00000000000000000000, 3.00000000000000000000, 0.00000000000000000000, 3.00000000000000000000
10.00000000000000000000, 0.00000000000000000000, 4221.02539062500000000000, 4363.58984375000000000000, 4174.35888671875000000000, 4241.02539062500000000000, 4256.92285156250000000000, 500.00000000000000000000, 6199.00000000000000000000, 9634.00000000000000000000, 0.00000000000000000000, 0.00000000000000000000, 0.00000000000000000000, 1392.00000000000000000000, 710.00000000000000000000, 3.00000000000000000000, 0.00000000000000000000, 3.00000000000000000000, 0.00000000000000000000, 3.00000000000000000000
11.00000000000000000000, 0.00000000000000000000, 4218.97412109375000000000, 4354.35888671875000000000, 4188.71777343750000000000, 4247.17919921875000000000, 4274.87158203125000000000, 16329.00000000000000000000, 0.00000000000000000000, 0.00000000000000000000, 0.00000000000000000000, 0.00000000000000000000, 0.00000000000000000000, 1392.00000000000000000000, 717.00000000000000000000, 3.00000000000000000000, 0.00000000000000000000, 3.00000000000000000000, 0.00000000000000000000, 3.00000000000000000000
12.00000000000000000000, 0.00000000000000000000, 4272.82031250000000000000, 4421.53857421875000000000, 4261.53857421875000000000, 4304.61523437500000000000, 4308.71777343750000000000, 500.00000000000000000000, 6200.00000000000000000000, 9637.00000000000000000000, 0.00000000000000000000, 0.00000000000000000000, 0.00000000000000000000, 1392.00000000000000000000, 725.00000000000000000000, 3.00000000000000000000, 0.00000000000000000000, 3.00000000000000000000, 0.00000000000000000000, 3.00000000000000000000
13.00000000000000000000, 0.00000000000000000000, 4273.33300781250000000000, 4444.10253906250000000000, 4268.71777343750000000000, 4368.20507812500000000000, 4267.69238281250000000000, 500.00000000000000000000, 0.00000000000000000000, 0.00000000000000000000, 0.00000000000000000000, 0.00000000000000000000, 0.00000000000000000000, 1392.00000000000000000000, 732.00000000000000000000, 3.00000000000000000000, 0.00000000000000000000, 3.00000000000000000000, 0.00000000000000000000, 3.00000000000000000000
14.00000000000000000000, 0.00000000000000000000, 4232.30761718750000000000, 4410.25634765625000000000, 4236.92285156250000000000, 4349.23046875000000000000, 4252.82031250000000000000, 450.00000000000000000000, 6202.00000000000000000000, 9639.00000000000000000000, 0.00000000000000000000, 0.00000000000000000000, 0.00000000000000000000, 1392.00000000000000000000, 740.00000000000000000000, 3.00000000000000000000, 0.00000000000000000000, 3.00000000000000000000, 0.00000000000000000000, 3.00000000000000000000
15.00000000000000000000, 0.00000000000000000000, 4241.02539062500000000000, 4519.48730468750000000000, 4209.74365234375000000000, 4232.30761718750000000000, 4296.41015625000000000000, 16329.00000000000000000000, 0.00000000000000000000, 0.00000000000000000000, 0.00000000000000000000, 0.00000000000000000000, 0.00000000000000000000, 1392.00000000000000000000, 747.00000000000000000000, 3.00000000000000000000, 0.00000000000000000000, 3.00000000000000000000, 0.00000000000000000000, 3.00000000000000000000
16.00000000000000000000, 0.00000000000000000000, 4319.48730468750000000000, 4665.64111328125000000000, 4254.35888671875000000000, 4188.20507812500000000000, 4351.28173828125000000000, 0.00000000000000000000, 6203.00000000000000000000, 9641.00000000000000000000, 0.00000000000000000000, 0.00000000000000000000, 0.00000000000000000000, 1392.00000000000000000000, 754.00000000000000000000, 3.00000000000000000000, 0.00000000000000000000, 3.00000000000000000000, 0.00000000000000000000, 3.00000000000000000000
17.00000000000000000000, 0.00000000000000000000, 4310.25634765625000000000, 4818.97412109375000000000, 4291.79492187500000000000, 4206.15380859375000000000, 4310.25634765625000000000, 0.00000000000000000000, 0.00000000000000000000, 0.00000000000000000000, 0.00000000000000000000, 0.00000000000000000000, 0.00000000000000000000, 1392.00000000000000000000, 762.00000000000000000000, 3.00000000000000000000, 0.00000000000000000000, 3.00000000000000000000, 0.00000000000000000000, 3.00000000000000000000
18.00000000000000000000, 0.00000000000000000000, 4316.41015625000000000000, 4966.15380859375000000000, 4323.07666015625000000000, 4148.20507812500000000000, 4301.53857421875000000000, 0.00000000000000000000, 6204.00000000000000000000, 9642.00000000000000000000, 0.00000000000000000000, 0.00000000000000000000, 0.00000000000000000000, 1392.00000000000000000000, 769.00000000000000000000, 3.00000000000000000000, 0.00000000000000000000, 3.00000000000000000000, 0.00000000000000000000, 3.00000000000000000000
19.00000000000000000000, 0.00000000000000000000, 4345.12792968750000000000, 5011.79492187500000000000, 4336.92285156250000000000, 4138.97412109375000000000, 4303.58984375000000000000, 0.00000000000000000000, 0.00000000000000000000, 0.00000000000000000000, 0.00000000000000000000, 0.00000000000000000000, 0.00000000000000000000, 1392.00000000000000000000, 776.00000000000000000000, 3.00000000000000000000, 0.00000000000000000000, 3.00000000000000000000, 0.00000000000000000000, 3.00000000000000000000
20.00000000000000000000, 0.00000000000000000000, 4361.02539062500000000000, 5130.25634765625000000000, 4390.25634765625000000000, 4157.94873046875000000000, 4262.05126953125000000000, 0.00000000000000000000, 6204.00000000000000000000, 9643.00000000000000000000, 0.00000000000000000000, 0.00000000000000000000, 0.00000000000000000000, 1392.00000000000000000000, 784.00000000000000000000, 3.00000000000000000000, 0.00000000000000000000, 3.00000000000000000000, 0.00000000000000000000, 3.00000000000000000000
21.00000000000000000000, 0.00000000000000000000, 4333.84619140625000000000, 5224.10253906250000000000, 4443.58984375000000000000, 4316.92285156250000000000, 4190.76904296875000000000, 0.00000000000000000000, 0.00000000000000000000, 0.00000000000000000000, 0.00000000000000000000, 0.00000000000000000000, 0.00000000000000000000, 1392.00000000000000000000, 791.00000000000000000000, 3.00000000000000000000, 0.00000000000000000000, 3.00000000000000000000, 0.00000000000000000000, 3.00000000000000000000
22.00000000000000000000, 0.00000000000000000000, 4252.82031250000000000000, 4993.84619140625000000000, 4413.33300781250000000000, 4564.61523437500000000000, 4136.41015625000000000000, 0.00000000000000000000, 6204.00000000000000000000, 9644.00000000000000000000, 0.00000000000000000000, 0.00000000000000000000, 0.00000000000000000000, 1392.00000000000000000000, 798.00000000000000000000, 3.00000000000000000000, 0.00000000000000000000, 3.00000000000000000000, 0.00000000000000000000, 3.00000000000000000000
23.00000000000000000000, 0.00000000000000000000, 4205.64111328125000000000, 4701.53857421875000000000, 4366.15380859375000000000, 4647.69238281250000000000, 4133.33300781250000000000, 0.00000000000000000000, 0.00000000000000000000, 0.00000000000000000000, 0.00000000000000000000, 0.00000000000000000000, 0.00000000000000000000, 1392.00000000000000000000, 806.00000000000000000000, 3.00000000000000000000, 0.00000000000000000000, 3.00000000000000000000, 0.00000000000000000000, 3.00000000000000000000
24.00000000000000000000, 0.00000000000000000000, 4214.87158203125000000000, 4653.84619140625000000000, 4346.15380859375000000000, 4516.92285156250000000000, 4166.66650390625000000000, 0.00000000000000000000, 6204.00000000000000000000, 9645.00000000000000000000, 0.00000000000000000000, 0.00000000000000000000, 0.00000000000000000000, 1392.00000000000000000000, 813.00000000000000000000, 3.00000000000000000000, 0.00000000000000000000, 3.00000000000000000000, 0.00000000000000000000, 3.00000000000000000000
25.00000000000000000000, 0.00000000000000000000, 4275.89746093750000000000, 4644.61523437500000000000, 4363.58984375000000000000, 4465.12792968750000000000, 4242.05126953125000000000, 0.00000000000000000000, 0.00000000000000000000, 0.00000000000000000000, 0.00000000000000000000, 0.00000000000000000000, 0.00000000000000000000, 1392.00000000000000000000, 821.00000000000000000000, 3.00000000000000000000, 0.00000000000000000000, 3.00000000000000000000, 0.00000000000000000000, 3.00000000000000000000
26.00000000000000000000, 0.00000000000000000000, 4274.35888671875000000000, 4618.97412109375000000000, 4385.12792968750000000000, 4583.58984375000000000000, 4227.69238281250000000000, 0.00000000000000000000, 6203.00000000000000000000, 9646.00000000000000000000, 0.00000000000000000000, 0.00000000000000000000, 0.00000000000000000000, 1392.00000000000000000000, 828.00000000000000000000, 3.00000000000000000000, 0.00000000000000000000, 3.00000000000000000000, 0.00000000000000000000, 3.00000000000000000000
27.00000000000000000000, 0.00000000000000000000, 4276.92285156250000000000, 4544.61523437500000000000, 4378.46142578125000000000, 4664.61523437500000000000, 4213.84619140625000000000, 0.00000000000000000000, 0.00000000000000000000, 0.00000000000000000000, 0.00000000000000000000, 0.00000000000000000000, 0.00000000000000000000, 1392.00000000000000000000, 835.00000000000000000000, 3.00000000000000000000, 0.00000000000000000000, 3.00000000000000000000, 0.00000000000000000000, 3.00000000000000000000
28.00000000000000000000, 0.00000000000000000000, 4251.79492187500000000000, 4428.20507812500000000000, 4320.51269531250000000000, 4695.89746093750000000000, 4198.46142578125000000000, 0.00000000000000000000, 6203.00000000000000000000, 9647.00000000000000000000, 0.00000000000000000000, 0.00000000000000000000, 0.00000000000000000000, 1392.00000000000000000000, 843.00000000000000000000, 3.00000000000000000000, 0.00000000000000000000, 3.00000000000000000000, 0.00000000000000000000, 3.00000000000000000000
29.00000000000000000000, 0.00000000000000000000, 4250.25634765625000000000, 4548.71777343750000000000, 4352.30761718750000000000, 4660.00000000000000000000, 4185.64111328125000000000, 0.00000000000000000000, 0.00000000000000000000, 0.00000000000000000000, 0.00000000000000000000, 0.00000000000000000000, 0.00000000000000000000, 1392.00000000000000000000, 850.00000000000000000000, 3.00000000000000000000, 0.00000000000000000000, 3.00000000000000000000, 0.00000000000000000000, 3.00000000000000000000
30.00000000000000000000, 0.00000000000000000000, 4198.97412109375000000000, 4632.82031250000000000000, 4349.74365234375000000000, 4516.92285156250000000000, 4177.94873046875000000000, 0.00000000000000000000, 6202.00000000000000000000, 9648.00000000000000000000, 0.00000000000000000000, 0.00000000000000000000, 0.00000000000000000000, 1392.00000000000000000000, 857.00000000000000000000, 3.00000000000000000000, 0.00000000000000000000, 3.00000000000000000000, 0.00000000000000000000, 3.00000000000000000000
31.00000000000000000000, 0.00000000000000000000, 4191.79492187500000000000, 4535.89746093750000000000, 4322.56396484375000000000, 4456.41015625000000000000, 4221.02539062500000000000, 0.00000000000000000000, 0.00000000000000000000, 0.00000000000000000000, 0.00000000000000000000, 0.00000000000000000000, 0.00000000000000000000, 1392.00000000000000000000, 865.00000000000000000000, 3.00000000000000000000, 0.00000000000000000000, 3.00000000000000000000, 0.00000000000000000000, 3.00000000000000000000
32.00000000000000000000, 0.00000000000000000000, 4223.58984375000000000000, 4479.48730468750000000000, 4278.46142578125000000000, 4426.15380859375000000000, 4242.56396484375000000000, 0.00000000000000000000, 6201.00000000000000000000, 9648.00000000000000000000, 0.00000000000000000000, 0.00000000000000000000, 0.00000000000000000000, 1392.00000000000000000000, 872.00000000000000000000, 3.00000000000000000000, 0.00000000000000000000, 3.00000000000000000000, 0.00000000000000000000, 3.00000000000000000000
33.00000000000000000000, 0.00000000000000000000, 4220.00000000000000000000, 4485.64111328125000000000, 4260.00000000000000000000, 4297.43603515625000000000, 4263.07666015625000000000, 0.00000000000000000000, 0.00000000000000000000, 0.00000000000000000000, 0.00000000000000000000, 0.00000000000000000000, 0.00000000000000000000, 1392.00000000000000000000, 879.00000000000000000000, 3.00000000000000000000, 0.00000000000000000000, 3.00000000000000000000, 0.00000000000000000000, 3.00000000000000000000
34.00000000000000000000, 0.00000000000000000000, 4200.00000000000000000000, 4430.25634765625000000000, 4237.94873046875000000000, 4258.46142578125000000000, 4266.15380859375000000000, 0.00000000000000000000, 6200.00000000000000000000, 9649.00000000000000000000, 0.00000000000000000000, 0.00000000000000000000, 0.00000000000000000000, 1392.00000000000000000000, 887.00000000000000000000, 3.00000000000000000000, 0.00000000000000000000, 3.00000000000000000000, 0.00000000000000000000, 3.00000000000000000000
35.00000000000000000000, 0.00000000000000000000, 4239.48730468750000000000, 4350.76904296875000000000, 4188.71777343750000000000, 4220.51269531250000000000, 4321.53857421875000000000, 0.00000000000000000000, 0.00000000000000000000, 0.00000000000000000000, 0.00000000000000000000, 0.00000000000000000000, 0.00000000000000000000, 1392.00000000000000000000, 894.00000000000000000000, 3.00000000000000000000, 0.00000000000000000000, 3.00000000000000000000, 0.00000000000000000000, 3.00000000000000000000
36.00000000000000000000, 0.00000000000000000000, 4310.25634765625000000000, 4638.97412109375000000000, 4221.02539062500000000000, 4105.64111328125000000000, 4382.05126953125000000000, 0.00000000000000000000, 6198.00000000000000000000, 9650.00000000000000000000, 0.00000000000000000000, 0.00000000000000000000, 0.00000000000000000000, 1392.00000000000000000000, 902.00000000000000000000, 3.00000000000000000000, 0.00000000000000000000, 3.00000000000000000000, 0.00000000000000000000, 3.00000000000000000000
37.00000000000000000000, 0.00000000000000000000, 4350.25634765625000000000, 4991.79492187500000000000, 4344.61523437500000000000, 4151.79492187500000000000, 4339.48730468750000000000, 0.00000000000000000000, 0.00000000000000000000, 0.00000000000000000000, 0.00000000000000000000, 0.00000000000000000000, 0.00000000000000000000, 1392.00000000000000000000, 909.00000000000000000000, 3.00000000000000000000, 0.00000000000000000000, 3.00000000000000000000, 0.00000000000000000000, 3.00000000000000000000
38.00000000000000000000, 0.00000000000000000000, 4374.35888671875000000000, 5103.58984375000000000000, 4400.00000000000000000000, 4215.38427734375000000000, 4284.10253906250000000000, 0.00000000000000000000, 6197.00000000000000000000, 9651.00000000000000000000, 0.00000000000000000000, 0.00000000000000000000, 0.00000000000000000000, 1392.00000000000000000000, 916.00000000000000000000, 3.00000000000000000000, 0.00000000000000000000, 3.00000000000000000000, 0.00000000000000000000, 3.00000000000000000000
39.00000000000000000000, 0.00000000000000000000, 4365.12792968750000000000, 5129.74365234375000000000, 4381.53857421875000000000, 4172.82031250000000000000, 4276.92285156250000000000, 0.00000000000000000000, 0.00000000000000000000, 0.00000000000000000000, 0.00000000000000000000, 0.00000000000000000000, 0.00000000000000000000, 1392.00000000000000000000, 924.00000000000000000000, 3.00000000000000000000, 0.00000000000000000000, 3.00000000000000000000, 0.00000000000000000000, 3.00000000000000000000
40.00000000000000000000, 0.00000000000000000000, 4341.53857421875000000000, 5124.61523437500000000000, 4370.25634765625000000000, 4166.15380859375000000000, 4283.58984375000000000000, 0.00000000000000000000, 6195.00000000000000000000, 9651.00000000000000000000, 0.00000000000000000000, 0.00000000000000000000, 0.00000000000000000000, 1392.00000000000000000000, 931.00000000000000000000, 3.00000000000000000000, 0.00000000000000000000, 3.00000000000000000000, 0.00000000000000000000, 3.00000000000000000000
41.00000000000000000000, 0.00000000000000000000, 4311.28173828125000000000, 4997.43554687500000000000, 4349.23046875000000000000, 4232.82031250000000000000, 4268.71777343750000000000, 0.00000000000000000000, 0.00000000000000000000, 0.00000000000000000000, 0.00000000000000000000, 0.00000000000000000000, 0.00000000000000000000, 1392.00000000000000000000, 938.00000000000000000000, 3.00000000000000000000, 0.00000000000000000000, 3.00000000000000000000, 0.00000000000000000000, 3.00000000000000000000
42.00000000000000000000, 0.00000000000000000000, 4372.82031250000000000000, 5015.38427734375000000000, 4397.94873046875000000000, 4227.69238281250000000000, 4330.25634765625000000000, 0.00000000000000000000, 6193.00000000000000000000, 9652.00000000000000000000, 0.00000000000000000000, 0.00000000000000000000, 0.00000000000000000000, 1392.00000000000000000000, 946.00000000000000000000, 3.00000000000000000000, 0.00000000000000000000, 3.00000000000000000000, 0.00000000000000000000, 3.00000000000000000000
43.00000000000000000000, 0.00000000000000000000, 4421.02539062500000000000, 5236.41015625000000000000, 4483.07666015625000000000, 4262.56396484375000000000, 4324.61523437500000000000, 0.00000000000000000000, 0.00000000000000000000, 0.00000000000000000000, 0.00000000000000000000, 0.00000000000000000000, 0.00000000000000000000, 1392.00000000000000000000, 953.00000000000000000000, 3.00000000000000000000, 0.00000000000000000000, 3.00000000000000000000, 0.00000000000000000000, 3.00000000000000000000
44.00000000000000000000, 0.00000000000000000000, 4391.28173828125000000000, 5115.89746093750000000000, 4439.48730468750000000000, 4244.10253906250000000000, 4312.82031250000000000000, 0.00000000000000000000, 6192.00000000000000000000, 9652.00000000000000000000, 0.00000000000000000000, 0.00000000000000000000, 0.00000000000000000000, 1392.00000000000000000000, 960.00000000000000000000, 3.00000000000000000000, 0.00000000000000000000, 3.00000000000000000000, 0.00000000000000000000, 3.00000000000000000000
45.00000000000000000000, 0.00000000000000000000, 4350.25634765625000000000, 4936.41015625000000000000, 4351.79492187500000000000, 4150.76904296875000000000, 4344.10253906250000000000, 0.00000000000000000000, 0.00000000000000000000, 0.00000000000000000000, 0.00000000000000000000, 0.00000000000000000000, 0.00000000000000000000, 1392.00000000000000000000, 968.00000000000000000000, 3.00000000000000000000, 0.00000000000000000000, 3.00000000000000000000, 0.00000000000000000000, 3.00000000000000000000
46.00000000000000000000, 0.00000000000000000000, 4446.66650390625000000000, 5085.64111328125000000000, 4427.17919921875000000000, 4134.35888671875000000000, 4415.38427734375000000000, 0.00000000000000000000, 6190.00000000000000000000, 9653.00000000000000000000, 0.00000000000000000000, 0.00000000000000000000, 0.00000000000000000000, 1392.00000000000000000000, 975.00000000000000000000, 3.00000000000000000000, 0.00000000000000000000, 3.00000000000000000000, 0.00000000000000000000, 3.00000000000000000000
47.00000000000000000000, 0.00000000000000000000, 4477.43554687500000000000, 5251.28173828125000000000, 4506.66650390625000000000, 4278.97412109375000000000, 4376.92285156250000000000, 0.00000000000000000000, 0.00000000000000000000, 0.00000000000000000000, 0.00000000000000000000, 0.00000000000000000000, 0.00000000000000000000, 1392.00000000000000000000, 983.00000000000000000000, 3.00000000000000000000, 0.00000000000000000000, 3.00000000000000000000, 0.00000000000000000000, 3.00000000000000000000
48.00000000000000000000, 0.00000000000000000000, 4422.56396484375000000000, 5176.92285156250000000000, 4524.61523437500000000000, 4432.82031250000000000000, 4298.97412109375000000000, 0.00000000000000000000, 6188.00000000000000000000, 9653.00000000000000000000, 0.00000000000000000000, 0.00000000000000000000, 0.00000000000000000000, 1392.00000000000000000000, 990.00000000000000000000, 3.00000000000000000000, 0.00000000000000000000, 3.00000000000000000000, 0.00000000000000000000, 3.00000000000000000000
57.00000000000000000000, 0.00000000000000000000, 4184.61523437500000000000, 4386.66650390625000000000, 4214.87158203125000000000, 4252.82031250000000000000, 4250.25634765625000000000, 0.00000000000000000000, 0.00000000000000000000, 0.00000000000000000000, 0.00000000000000000000, 0.00000000000000000000, 0.00000000000000000000, 1392.00000000000000000000, 997.00000000000000000000, 3.00000000000000000000, 0.00000000000000000000, 3.00000000000000000000, 0.00000000000000000000, 3.00000000000000000000
58.00000000000000000000, 0.00000000000000000000, 4264.10253906250000000000, 4436.41015625000000000000, 4256.41015625000000000000, 4255.38427734375000000000, 4314.87158203125000000000, 0.00000000000000000000, 6183.00000000000000000000, 9654.00000000000000000000, 0.00000000000000000000, 0.00000000000000000000, 0.00000000000000000000, 1393.00000000000000000000, 5.00000000000000000000, 3.00000000000000000000, 0.00000000000000000000, 3.00000000000000000000, 0.00000000000000000000, 3.00000000000000000000
59.00000000000000000000, 0.00000000000000000000, 4294.35888671875000000000, 4428.20507812500000000000, 4306.15380859375000000000, 4398.46142578125000000000, 4317.43603515625000000000, 0.00000000000000000000, 0.00000000000000000000, 0.00000000000000000000, 0.00000000000000000000, 0.00000000000000000000, 0.00000000000000000000, 1393.00000000000000000000, 12.00000000000000000000, 3.00000000000000000000, 0.00000000000000000000, 3.00000000000000000000, 0.00000000000000000000, 3.00000000000000000000
60.00000000000000000000, 0.00000000000000000000, 4225.12792968750000000000, 4403.07666015625000000000, 4287.69238281250000000000, 4505.12792968750000000000, 4228.71777343750000000000, 0.00000000000000000000, 6180.00000000000000000000, 9654.00000000000000000000, 0.00000000000000000000, 0.00000000000000000000, 0.00000000000000000000, 1393.00000000000000000000, 20.00000000000000000000, 3.00000000000000000000, 0.00000000000000000000, 3.00000000000000000000, 0.00000000000000000000, 3.00000000000000000000
61.00000000000000000000, 0.00000000000000000000, 4218.46142578125000000000, 4486.15380859375000000000, 4304.61523437500000000000, 4506.15380859375000000000, 4200.51269531250000000000, 0.00000000000000000000, 0.00000000000000000000, 0.00000000000000000000, 0.00000000000000000000, 0.00000000000000000000, 0.00000000000000000000, 1393.00000000000000000000, 27.00000000000000000000, 3.00000000000000000000, 0.00000000000000000000, 3.00000000000000000000, 0.00000000000000000000, 3.00000000000000000000
62.00000000000000000000, 0.00000000000000000000, 4215.89746093750000000000, 4564.61523437500000000000, 4331.28173828125000000000, 4570.25634765625000000000, 4179.48730468750000000000, 0.00000000000000000000, 6178.00000000000000000000, 9653.00000000000000000000, 0.00000000000000000000, 0.00000000000000000000, 0.00000000000000000000, 1393.00000000000000000000, 34.00000000000000000000, 3.00000000000000000000, 0.00000000000000000000, 3.00000000000000000000, 0.00000000000000000000, 3.00000000000000000000
63.00000000000000000000, 0.00000000000000000000, 4217.43603515625000000000, 4509.74365234375000000000, 4351.28173828125000000000, 4658.46142578125000000000, 4172.82031250000000000000, 0.00000000000000000000, 0.00000000000000000000, 0.00000000000000000000, 0.00000000000000000000, 0.00000000000000000000, 0.00000000000000000000, 1393.00000000000000000000, 42.00000000000000000000, 3.00000000000000000000, 0.00000000000000000000, 3.00000000000000000000, 0.00000000000000000000, 3.00000000000000000000
64.00000000000000000000, 0.00000000000000000000, 4229.23046875000000000000, 4391.79492187500000000000, 4279.48730468750000000000, 4506.66650390625000000000, 4225.12792968750000000000, 500.00000000000000000000, 6175.00000000000000000000, 9653.00000000000000000000, 0.00000000000000000000, 0.00000000000000000000, 0.00000000000000000000, 1393.00000000000000000000, 49.00000000000000000000, 3.00000000000000000000, 0.00000000000000000000, 3.00000000000000000000, 0.00000000000000000000, 3.00000000000000000000
65.00000000000000000000, 0.00000000000000000000, 4253.33300781250000000000, 4374.87158203125000000000, 4168.20507812500000000000, 4126.15380859375000000000, 4318.97412109375000000000, 500.00000000000000000000, 0.00000000000000000000, 0.00000000000000000000, 0.00000000000000000000, 0.00000000000000000000, 0.00000000000000000000, 1393.00000000000000000000, 57.00000000000000000000, 3.00000000000000000000, 0.00000000000000000000, 3.00000000000000000000, 0.00000000000000000000, 3.00000000000000000000
66.00000000000000000000, 0.00000000000000000000, 4253.84619140625000000000, 4476.41015625000000000000, 4125.64111328125000000000, 3990.25634765625000000000, 4332.30761718750000000000, 16277.00000000000000000000, 6173.00000000000000000000, 9652.00000000000000000000, 0.00000000000000000000, 0.00000000000000000000, 0.00000000000000000000, 1393.00000000000000000000, 64.00000000000000000000, 3.00000000000000000000, 0.00000000000000000000, 3.00000000000000000000, 0.00000000000000000000, 3.00000000000000000000
67.00000000000000000000, 0.00000000000000000000, 4260.00000000000000000000, 4574.87158203125000000000, 4171.79492187500000000000, 4061.53833007812500000000, 4332.82031250000000000000, 500.00000000000000000000, 0.00000000000000000000, 0.00000000000000000000, 0.00000000000000000000, 0.00000000000000000000, 0.00000000000000000000, 1393.00000000000000000000, 71.00000000000000000000, 3.00000000000000000000, 0.00000000000000000000, 3.00000000000000000000, 0.00000000000000000000, 3.00000000000000000000
68.00000000000000000000, 0.00000000000000000000, 4267.69238281250000000000, 4615.38427734375000000000, 4193.33300781250000000000, 4061.02563476562500000000, 4341.53857421875000000000, 0.00000000000000000000, 6170.00000000000000000000, 9650.00000000000000000000, 0.00000000000000000000, 0.00000000000000000000, 0.00000000000000000000, 1393.00000000000000000000, 79.00000000000000000000, 3.00000000000000000000, 0.00000000000000000000, 3.00000000000000000000, 0.00000000000000000000, 3.00000000000000000000
69.00000000000000000000, 0.00000000000000000000, 4220.00000000000000000000, 4561.53857421875000000000, 4146.15380859375000000000, 4026.66650390625000000000, 4294.35888671875000000000, 500.00000000000000000000, 0.00000000000000000000, 0.00000000000000000000, 0.00000000000000000000, 0.00000000000000000000, 0.00000000000000000000, 1393.00000000000000000000, 86.00000000000000000000, 3.00000000000000000000, 0.00000000000000000000, 3.00000000000000000000, 0.00000000000000000000, 3.00000000000000000000
70.00000000000000000000, 0.00000000000000000000, 4241.02539062500000000000, 4689.74365234375000000000, 4186.15380859375000000000, 4023.07690429687500000000, 4286.15380859375000000000, 16196.00000000000000000000, 6168.00000000000000000000, 9649.00000000000000000000, 0.00000000000000000000, 0.00000000000000000000, 0.00000000000000000000, 1393.00000000000000000000, 94.00000000000000000000, 3.00000000000000000000, 0.00000000000000000000, 3.00000000000000000000, 0.00000000000000000000, 3.00000000000000000000
71.00000000000000000000, 0.00000000000000000000, 4326.66650390625000000000, 5168.20507812500000000000, 4373.33300781250000000000, 4148.20507812500000000000, 4277.43603515625000000000, 500.00000000000000000000, 0.00000000000000000000, 0.00000000000000000000, 0.00000000000000000000, 0.00000000000000000000, 0.00000000000000000000, 1393.00000000000000000000, 101.00000000000000000000, 3.00000000000000000000, 0.00000000000000000000, 3.00000000000000000000, 0.00000000000000000000, 3.00000000000000000000
72.00000000000000000000, 0.00000000000000000000, 4356.41015625000000000000, 5479.48681640625000000000, 4519.48730468750000000000, 4334.35888671875000000000, 4207.17919921875000000000, 500.00000000000000000000, 6166.00000000000000000000, 9648.00000000000000000000, 0.00000000000000000000, 0.00000000000000000000, 0.00000000000000000000, 1393.00000000000000000000, 109.00000000000000000000, 3.00000000000000000000, 0.00000000000000000000, 3.00000000000000000000, 0.00000000000000000000, 3.00000000000000000000
73.00000000000000000000, 0.00000000000000000000, 4282.56396484375000000000, 5252.82031250000000000000, 4506.15380859375000000000, 4543.07666015625000000000, 4108.20507812500000000000, 0.00000000000000000000, 0.00000000000000000000, 0.00000000000000000000, 0.00000000000000000000, 0.00000000000000000000, 0.00000000000000000000, 1393.00000000000000000000, 116.00000000000000000000, 3.00000000000000000000, 0.00000000000000000000, 3.00000000000000000000, 0.00000000000000000000, 3.00000000000000000000
74.00000000000000000000, 0.00000000000000000000, 4271.28173828125000000000, 4985.12792968750000000000, 4486.66650390625000000000, 4608.71777343750000000000, 4132.82031250000000000000, 500.00000000000000000000, 6163.00000000000000000000, 9647.00000000000000000000, 0.00000000000000000000, 0.00000000000000000000, 0.00000000000000000000, 1393.00000000000000000000, 123.00000000000000000000, 3.00000000000000000000, 0.00000000000000000000, 3.00000000000000000000, 0.00000000000000000000, 3.00000000000000000000
75.00000000000000000000, 0.00000000000000000000, 4241.53857421875000000000, 4874.87158203125000000000, 4436.41015625000000000000, 4554.35888671875000000000, 4132.30761718750000000000, 16263.00000000000000000000, 0.00000000000000000000, 0.00000000000000000000, 0.00000000000000000000, 0.00000000000000000000, 0.00000000000000000000, 1393.00000000000000000000, 131.00000000000000000000, 3.00000000000000000000, 0.00000000000000000000, 3.00000000000000000000, 0.00000000000000000000, 3.00000000000000000000
76.00000000000000000000, 0.00000000000000000000, 4189.74365234375000000000, 4668.20507812500000000000, 4371.28173828125000000000, 4626.15380859375000000000, 4097.94873046875000000000, 500.00000000000000000000, 6160.00000000000000000000, 9645.00000000000000000000, 0.00000000000000000000, 0.00000000000000000000, 0.00000000000000000000, 1393.00000000000000000000, 138.00000000000000000000, 3.00000000000000000000, 0.00000000000000000000, 3.00000000000000000000, 0.00000000000000000000, 3.00000000000000000000
77.00000000000000000000, 0.00000000000000000000, 4148.20507812500000000000, 4453.33300781250000000000, 4294.87158203125000000000, 4608.71777343750000000000, 4118.46142578125000000000, 500.00000000000000000000, 0.00000000000000000000, 0.00000000000000000000, 0.00000000000000000000, 0.00000000000000000000, 0.00000000000000000000, 1393.00000000000000000000, 146.00000000000000000000, 3.00000000000000000000, 0.00000000000000000000, 3.00000000000000000000, 0.00000000000000000000, 3.00000000000000000000
78.00000000000000000000, 0.00000000000000000000, 4162.05126953125000000000, 4391.79492187500000000000, 4228.20507812500000000000, 4269.74365234375000000000, 4231.79492187500000000000, 450.00000000000000000000, 6156.00000000000000000000, 9643.00000000000000000000, 0.00000000000000000000, 0.00000000000000000000, 0.00000000000000000000, 1393.00000000000000000000, 153.00000000000000000000, 3.00000000000000000000, 0.00000000000000000000, 3.00000000000000000000, 0.00000000000000000000, 3.00000000000000000000
79.00000000000000000000, 0.00000000000000000000, 4177.94873046875000000000, 4515.89746093750000000000, 4176.41015625000000000000, 4076.41015625000000000000, 4263.58984375000000000000, 16263.00000000000000000000, 0.00000000000000000000, 0.00000000000000000000, 0.00000000000000000000, 0.00000000000000000000, 0.00000000000000000000, 1393.00000000000000000000, 160.00000000000000000000, 3.00000000000000000000, 0.00000000000000000000, 3.00000000000000000000, 0.00000000000000000000, 3.00000000000000000000
80.00000000000000000000, 0.00000000000000000000, 4247.69238281250000000000, 4760.00000000000000000000, 4231.28173828125000000000, 4160.51269531250000000000, 4267.17919921875000000000, 450.00000000000000000000, 6153.00000000000000000000, 9641.00000000000000000000, 0.00000000000000000000, 0.00000000000000000000, 0.00000000000000000000, 1393.00000000000000000000, 168.00000000000000000000, 3.00000000000000000000, 0.00000000000000000000, 3.00000000000000000000, 0.00000000000000000000, 3.00000000000000000000
81.00000000000000000000, 0.00000000000000000000, 4303.07666015625000000000, 4746.15380859375000000000, 4218.97412109375000000000, 4065.64086914062500000000, 4329.23046875000000000000, 450.00000000000000000000, 0.00000000000000000000, 0.00000000000000000000, 0.00000000000000000000, 0.00000000000000000000, 0.00000000000000000000, 1393.00000000000000000000, 175.00000000000000000000, 3.00000000000000000000, 0.00000000000000000000, 3.00000000000000000000, 0.00000000000000000000, 3.00000000000000000000
82.00000000000000000000, 0.00000000000000000000, 4274.87158203125000000000, 4520.51269531250000000000, 4144.61523437500000000000, 3926.66650390625000000000, 4360.51269531250000000000, 450.00000000000000000000, 6150.00000000000000000000, 9638.00000000000000000000, 0.00000000000000000000, 0.00000000000000000000, 0.00000000000000000000, 1393.00000000000000000000, 183.00000000000000000000, 3.00000000000000000000, 0.00000000000000000000, 3.00000000000000000000, 0.00000000000000000000, 3.00000000000000000000
83.00000000000000000000, 0.00000000000000000000, 4223.58984375000000000000, 4566.15380859375000000000, 4144.61523437500000000000, 4016.92309570312500000000, 4301.02539062500000000000, 16263.00000000000000000000, 0.00000000000000000000, 0.00000000000000000000, 0.00000000000000000000, 0.00000000000000000000, 0.00000000000000000000, 1393.00000000000000000000, 190.00000000000000000000, 3.00000000000000000000, 0.00000000000000000000, 3.00000000000000000000, 0.00000000000000000000, 3.00000000000000000000
84.00000000000000000000, 0.00000000000000000000, 4206.66650390625000000000, 4727.17919921875000000000, 4174.87158203125000000000, 4069.74340820312500000000, 4237.94873046875000000000, 450.00000000000000000000, 6147.00000000000000000000, 9636.00000000000000000000, 0.00000000000000000000, 0.00000000000000000000, 0.00000000000000000000, 1393.00000000000000000000, 197.00000000000000000000, 3.00000000000000000000, 0.00000000000000000000, 3.00000000000000000000, 0.00000000000000000000, 3.00000000000000000000
85.00000000000000000000, 0.00000000000000000000, 4220.51269531250000000000, 4894.35888671875000000000, 4230.25634765625000000000, 4045.12817382812500000000, 4207.69238281250000000000, 450.00000000000000000000, 0.00000000000000000000, 0.00000000000000000000, 0.00000000000000000000, 0.00000000000000000000, 0.00000000000000000000, 1393.00000000000000000000, 205.00000000000000000000, 3.00000000000000000000, 0.00000000000000000000, 3.00000000000000000000, 0.00000000000000000000, 3.00000000000000000000
86.00000000000000000000, 0.00000000000000000000, 4226.15380859375000000000, 5255.38427734375000000000, 4389.23046875000000000000, 4196.92285156250000000000, 4144.10253906250000000000, 450.00000000000000000000, 6144.00000000000000000000, 9634.00000000000000000000, 0.00000000000000000000, 0.00000000000000000000, 0.00000000000000000000, 1393.00000000000000000000, 212.00000000000000000000, 3.00000000000000000000, 0.00000000000000000000, 3.00000000000000000000, 0.00000000000000000000, 3.00000000000000000000
87.00000000000000000000, 0.00000000000000000000, 4241.53857421875000000000, 5450.76904296875000000000, 4509.23046875000000000000, 4378.97412109375000000000, 4095.89721679687500000000, 16263.00000000000000000000, 0.00000000000000000000, 0.00000000000000000000, 0.00000000000000000000, 0.00000000000000000000, 0.00000000000000000000, 1393.00000000000000000000, 220.00000000000000000000, 3.00000000000000000000, 0.00000000000000000000, 3.00000000000000000000, 0.00000000000000000000, 3.00000000000000000000
88.00000000000000000000, 0.00000000000000000000, 4216.41015625000000000000, 5170.25634765625000000000, 4444.10253906250000000000, 4437.43554687500000000000, 4068.71777343750000000000, 450.00000000000000000000, 6142.00000000000000000000, 9631.00000000000000000000, 0.00000000000000000000, 0.00000000000000000000, 0.00000000000000000000, 1393.00000000000000000000, 227.00000000000000000000, 3.00000000000000000000, 0.00000000000000000000, 3.00000000000000000000, 0.00000000000000000000, 3.00000000000000000000
89.00000000000000000000, 0.00000000000000000000, 4201.53857421875000000000, 4751.79492187500000000000, 4411.79492187500000000000, 4608.71777343750000000000, 4103.07666015625000000000, 450.00000000000000000000, 0.00000000000000000000, 0.00000000000000000000, 0.00000000000000000000, 0.00000000000000000000, 0.00000000000000000000, 1393.00000000000000000000, 234.00000000000000000000, 3.00000000000000000000, 0.00000000000000000000, 3.00000000000000000000, 0.00000000000000000000, 3.00000000000000000000
90.00000000000000000000, 0.00000000000000000000, 4201.53857421875000000000, 4528.71777343750000000000, 4408.20507812500000000000, 4749.74365234375000000000, 4150.25634765625000000000, 450.00000000000000000000, 6139.00000000000000000000, 9629.00000000000000000000, 0.00000000000000000000, 0.00000000000000000000, 0.00000000000000000000, 1393.00000000000000000000, 242.00000000000000000000, 3.00000000000000000000, 0.00000000000000000000, 3.00000000000000000000, 0.00000000000000000000, 3.00000000000000000000
91.00000000000000000000, 0.00000000000000000000, 4255.89746093750000000000, 4484.61523437500000000000, 4392.30761718750000000000, 4662.05126953125000000000, 4202.56396484375000000000, 16263.00000000000000000000, 0.00000000000000000000, 0.00000000000000000000, 0.00000000000000000000, 0.00000000000000000000, 0.00000000000000000000, 1393.00000000000000000000, 249.00000000000000000000, 3.00000000000000000000, 0.00000000000000000000, 3.00000000000000000000, 0.00000000000000000000, 3.00000000000000000000
92.00000000000000000000, 0.00000000000000000000, 4310.25634765625000000000, 4481.02539062500000000000, 4407.17919921875000000000, 4619.48730468750000000000, 4254.87158203125000000000, 450.00000000000000000000, 6137.00000000000000000000, 9625.00000000000000000000, 0.00000000000000000000, 0.00000000000000000000, 0.00000000000000000000, 1393.00000000000000000000, 257.00000000000000000000, 3.00000000000000000000, 0.00000000000000000000, 3.00000000000000000000, 0.00000000000000000000, 3.00000000000000000000
93.00000000000000000000, 0.00000000000000000000, 4432.82031250000000000000, 4555.38427734375000000000, 4491.79492187500000000000, 4656.41015625000000000000, 4365.64111328125000000000, 450.00000000000000000000, 0.00000000000000000000, 0.00000000000000000000, 0.00000000000000000000, 0.00000000000000000000, 0.00000000000000000000, 1393.00000000000000000000, 264.00000000000000000000, 3.00000000000000000000, 0.00000000000000000000, 3.00000000000000000000, 0.00000000000000000000, 3.00000000000000000000
94.00000000000000000000, 0.00000000000000000000, 4509.74365234375000000000, 4533.33300781250000000000, 4494.35888671875000000000, 4701.02539062500000000000, 4416.41015625000000000000, 450.00000000000000000000, 6134.00000000000000000000, 9622.00000000000000000000, 0.00000000000000000000, 0.00000000000000000000, 0.00000000000000000000, 1393.00000000000000000000, 271.00000000000000000000, 3.00000000000000000000, 0.00000000000000000000, 3.00000000000000000000, 0.00000000000000000000, 3.00000000000000000000
95.00000000000000000000, 0.00000000000000000000, 4532.82031250000000000000, 4438.46142578125000000000, 4448.71777343750000000000, 4627.17919921875000000000, 4454.35888671875000000000, 16263.00000000000000000000, 0.00000000000000000000, 0.00000000000000000000, 0.00000000000000000000, 0.00000000000000000000, 0.00000000000000000000, 1393.00000000000000000000, 279.00000000000000000000, 3.00000000000000000000, 0.00000000000000000000, 3.00000000000000000000, 0.00000000000000000000, 3.00000000000000000000
96.00000000000000000000, 0.00000000000000000000, 4652.30761718750000000000, 4928.20507812500000000000, 4533.33300781250000000000, 4375.89746093750000000000, 4533.33300781250000000000, 450.00000000000000000000, 6131.00000000000000000000, 9618.00000000000000000000, 0.00000000000000000000, 0.00000000000000000000, 0.00000000000000000000, 1393.00000000000000000000, 286.00000000000000000000, 3.00000000000000000000, 0.00000000000000000000, 3.00000000000000000000, 0.00000000000000000000, 3.00000000000000000000
97.00000000000000000000, 0.00000000000000000000, 4822.56396484375000000000, 5598.97412109375000000000, 4694.35888671875000000000, 4237.43603515625000000000, 4602.05126953125000000000, 450.00000000000000000000, 0.00000000000000000000, 0.00000000000000000000, 0.00000000000000000000, 0.00000000000000000000, 0.00000000000000000000, 1393.00000000000000000000, 294.00000000000000000000, 3.00000000000000000000, 0.00000000000000000000, 3.00000000000000000000, 0.00000000000000000000, 3.00000000000000000000
98.00000000000000000000, 0.00000000000000000000, 4743.58984375000000000000, 5141.53857421875000000000, 4519.48730468750000000000, 4142.56396484375000000000, 4665.64111328125000000000, 450.00000000000000000000, 6129.00000000000000000000, 9614.00000000000000000000, 0.00000000000000000000, 0.00000000000000000000, 0.00000000000000000000, 1393.00000000000000000000, 301.00000000000000000000, 3.00000000000000000000, 0.00000000000000000000, 3.00000000000000000000, 0.00000000000000000000, 3.00000000000000000000
99.00000000000000000000, 0.00000000000000000000, 4618.46142578125000000000, 4243.07666015625000000000, 4237.43603515625000000000, 3959.48706054687500000000, 4757.43554687500000000000, 16263.00000000000000000000, 0.00000000000000000000, 0.00000000000000000000, 0.00000000000000000000, 0.00000000000000000000, 0.00000000000000000000, 1393.00000000000000000000, 308.00000000000000000000, 3.00000000000000000000, 0.00000000000000000000, 3.00000000000000000000, 0.00000000000000000000, 3.00000000000000000000
100.00000000000000000000, 0.00000000000000000000, 4775.89746093750000000000, 4540.00000000000000000000, 4429.23046875000000000000, 4200.00000000000000000000, 4749.23046875000000000000, 450.00000000000000000000, 6126.00000000000000000000, 9610.00000000000000000000, 0.00000000000000000000, 0.00000000000000000000, 0.00000000000000000000, 1393.00000000000000000000, 316.00000000000000000000, 3.00000000000000000000, 0.00000000000000000000, 3.00000000000000000000, 0.00000000000000000000, 3.00000000000000000000
101.00000000000000000000, 0.00000000000000000000, 5001.02539062500000000000, 5223.07666015625000000000, 4769.74365234375000000000, 4588.71777343750000000000, 4767.69238281250000000000, 450.00000000000000000000, 0.00000000000000000000, 0.00000000000000000000, 0.00000000000000000000, 0.00000000000000000000, 0.00000000000000000000, 1393.00000000000000000000, 323.00000000000000000000, 3.00000000000000000000, 0.00000000000000000000, 3.00000000000000000000, 0.00000000000000000000, 3.00000000000000000000
102.00000000000000000000, 0.00000000000000000000, 4982.05126953125000000000, 4896.41015625000000000000, 4653.33300781250000000000, 4524.10253906250000000000, 4878.97412109375000000000, 450.00000000000000000000, 6123.00000000000000000000, 9606.00000000000000000000, 0.00000000000000000000, 0.00000000000000000000, 0.00000000000000000000, 1393.00000000000000000000, 331.00000000000000000000, 3.00000000000000000000, 0.00000000000000000000, 3.00000000000000000000, 0.00000000000000000000, 3.00000000000000000000
103.00000000000000000000, 0.00000000000000000000, 4953.84619140625000000000, 4393.33300781250000000000, 4532.82031250000000000000, 4555.38427734375000000000, 4920.00000000000000000000, 16263.00000000000000000000, 0.00000000000000000000, 0.00000000000000000000, 0.00000000000000000000, 0.00000000000000000000, 0.00000000000000000000, 1393.00000000000000000000, 338.00000000000000000000, 3.00000000000000000000, 0.00000000000000000000, 3.00000000000000000000, 0.00000000000000000000, 3.00000000000000000000
104.00000000000000000000, 0.00000000000000000000, 4991.28173828125000000000, 4467.69238281250000000000, 4557.94873046875000000000, 4566.15380859375000000000, 4907.69238281250000000000, 450.00000000000000000000, 6120.00000000000000000000, 9600.00000000000000000000, 0.00000000000000000000, 0.00000000000000000000, 0.00000000000000000000, 1393.00000000000000000000, 345.00000000000000000000, 3.00000000000000000000, 0.00000000000000000000, 3.00000000000000000000, 0.00000000000000000000, 3.00000000000000000000
105.00000000000000000000, 0.00000000000000000000, 4965.12792968750000000000, 4609.23046875000000000000, 4375.89746093750000000000, 3984.61523437500000000000, 4971.28173828125000000000, 450.00000000000000000000, 0.00000000000000000000, 0.00000000000000000000, 0.00000000000000000000, 0.00000000000000000000, 0.00000000000000000000, 1393.00000000000000000000, 353.00000000000000000000, 3.00000000000000000000, 0.00000000000000000000, 3.00000000000000000000, 0.00000000000000000000, 3.00000000000000000000
106.00000000000000000000, 0.00000000000000000000, 4898.46142578125000000000, 4587.69238281250000000000, 4303.07666015625000000000, 3917.43579101562500000000, 4903.07666015625000000000, 450.00000000000000000000, 6115.00000000000000000000, 9596.00000000000000000000, 0.00000000000000000000, 0.00000000000000000000, 0.00000000000000000000, 1393.00000000000000000000, 360.00000000000000000000, 3.00000000000000000000, 0.00000000000000000000, 3.00000000000000000000, 0.00000000000000000000, 3.00000000000000000000
107.00000000000000000000, 0.00000000000000000000, 4758.97412109375000000000, 4600.51269531250000000000, 4427.17919921875000000000, 4506.66650390625000000000, 4630.25634765625000000000, 16263.00000000000000000000, 0.00000000000000000000, 0.00000000000000000000, 0.00000000000000000000, 0.00000000000000000000, 0.00000000000000000000, 1393.00000000000000000000, 368.00000000000000000000, 3.00000000000000000000, 0.00000000000000000000, 3.00000000000000000000, 0.00000000000000000000, 3.00000000000000000000
108.00000000000000000000, 0.00000000000000000000, 4626.15380859375000000000, 4623.07666015625000000000, 4420.51269531250000000000, 4527.17919921875000000000, 4496.92285156250000000000, 450.00000000000000000000, 6111.00000000000000000000, 9591.00000000000000000000, 0.00000000000000000000, 0.00000000000000000000, 0.00000000000000000000, 1393.00000000000000000000, 375.00000000000000000000, 3.00000000000000000000, 0.00000000000000000000, 3.00000000000000000000, 0.00000000000000000000, 3.00000000000000000000
109.00000000000000000000, 0.00000000000000000000, 4461.53857421875000000000, 4534.35888671875000000000, 4259.48730468750000000000, 4232.30761718750000000000, 4417.94873046875000000000, 450.00000000000000000000, 0.00000000000000000000, 0.00000000000000000000, 0.00000000000000000000, 0.00000000000000000000, 0.00000000000000000000, 1393.00000000000000000000, 383.00000000000000000000, 3.00000000000000000000, 0.00000000000000000000, 3.00000000000000000000, 0.00000000000000000000, 3.00000000000000000000
110.00000000000000000000, 0.00000000000000000000, 4412.82031250000000000000, 4568.71777343750000000000, 4309.23046875000000000000, 4326.66650390625000000000, 4346.15380859375000000000, 450.00000000000000000000, 6105.00000000000000000000, 9587.00000000000000000000, 0.00000000000000000000, 0.00000000000000000000, 0.00000000000000000000, 1393.00000000000000000000, 390.00000000000000000000, 3.00000000000000000000, 0.00000000000000000000, 3.00000000000000000000, 0.00000000000000000000, 3.00000000000000000000
111.00000000000000000000, 0.00000000000000000000, 4364.10253906250000000000, 4548.71777343750000000000, 4349.74365234375000000000, 4517.94873046875000000000, 4264.61523437500000000000, 16263.00000000000000000000, 0.00000000000000000000, 0.00000000000000000000, 0.00000000000000000000, 0.00000000000000000000, 0.00000000000000000000, 1393.00000000000000000000, 397.00000000000000000000, 3.00000000000000000000, 0.00000000000000000000, 3.00000000000000000000, 0.00000000000000000000, 3.00000000000000000000
112.00000000000000000000, 0.00000000000000000000, 4370.76904296875000000000, 4512.82031250000000000000, 4323.07666015625000000000, 4422.56396484375000000000, 4286.15380859375000000000, 450.00000000000000000000, 6115.00000000000000000000, 9596.00000000000000000000, 0.00000000000000000000, 0.00000000000000000000, 0.00000000000000000000, 1393.00000000000000000000, 405.00000000000000000000, 3.00000000000000000000, 0.00000000000000000000, 3.00000000000000000000, 0.00000000000000000000, 3.00000000000000000000
113.00000000000000000000, 0.00000000000000000000, 4424.10253906250000000000, 4744.10253906250000000000, 4389.23046875000000000000, 4400.51269531250000000000, 4292.82031250000000000000, 450.00000000000000000000, 0.00000000000000000000, 0.00000000000000000000, 0.00000000000000000000, 0.00000000000000000000, 0.00000000000000000000, 1393.00000000000000000000, 412.00000000000000000000, 3.00000000000000000000, 0.00000000000000000000, 3.00000000000000000000, 0.00000000000000000000, 3.00000000000000000000
114.00000000000000000000, 0.00000000000000000000, 4478.97412109375000000000, 4796.41015625000000000000, 4448.20507812500000000000, 4452.30761718750000000000, 4337.43603515625000000000, 450.00000000000000000000, 6105.00000000000000000000, 9587.00000000000000000000, 0.00000000000000000000, 0.00000000000000000000, 0.00000000000000000000, 1393.00000000000000000000, 420.00000000000000000000, 3.00000000000000000000, 0.00000000000000000000, 3.00000000000000000000, 0.00000000000000000000, 3.00000000000000000000
